## File LOS/SB2_B2004a_2.2z_Mags_100.bpz  Fri Aug 12 23:36:49 2016
##
##Parameters used to run BPZ:
##
##AB_DIR=/home/lidenscheng/bpz-1.99.3//AB/
##ADD_CONTINUOUS_PROB=None
##ADD_SPEC_PROB=None
##CHECK=LOS/SB2_B2004a_2.2z_Mags_100.flux_comparison
##COLOR=no
##COLUMNS=losNoErrors.columns
##CONVOLVE_P=yes
##DELTA_M_0=0.0
##DZ=0.01
##EXCLUDE=none
##FC=None
##FILTER_DIR=/home/lidenscheng/MK_DirectSim/filters/
##GET_Z=yes
##INPUT=LOS/SB2_B2004a_2.2z_Mags_100.txt
##INTERACTIVE=yes
##INTERP=0
##MADAU=no
##MAG=yes
##MEAN_IGM=yes
##MERGE_PEAKS=no
##MIN_MAGERR=0.001
##MIN_RMS=0.05
##NEW_AB=no
##NMAX=None
##NTYPES=None
##N_PEAKS=1
##ODDS=0.95
##ONLY_TYPE=no
##OUTPUT=LOS/SB2_B2004a_2.2z_Mags_100.bpz
##PHOTO_ERRORS=no
##PLOTS=no
##PRIOR=none
##PROBS=no
##PROBS2=no
##PROBS_LITE=LOS/SB2_B2004a_2.2z_Mags_100.probs
##P_MIN=0.01
##SED_DIR=/home/lidenscheng/MK_DirectSim/SEDs/
##SPECTRA=SB2.list
##VERBOSE=yes
##ZC=None
##ZMAX=10.0
##ZMIN=0.01
##ZP_OFFSETS=0.0
##Z_THR=0
##
##Column information
##
# 1 ID
# 2 Z_B
# 3 Z_B_MIN
# 4 Z_B_MAX
# 5 T_B
# 6 ODDS    
# 7 Z_ML
# 8 T_ML
# 9 CHI-SQUARED
# 10 M_0
##
    1 2.260 1.941  2.579 1.000 1.00000 2.260 1.000      1.513  23.000
    2 2.250 1.932  2.568 1.000 1.00000 2.260 1.000      1.925  23.000
    3 2.260 1.941  2.579 1.000 1.00000 2.260 1.000      1.398  23.000
    4 2.240 1.922  2.558 1.000 1.00000 2.240 1.000      1.310  23.000
    5 2.230 1.913  2.547 1.000 1.00000 2.240 1.000      2.388  23.000
    6 2.240 1.922  2.558 1.000 1.00000 2.240 1.000      1.228  23.000
    7 2.340 2.013  2.667 1.000 1.00000 2.340 1.000     23.397  23.000
    8 2.290 1.968  2.612 1.000 1.00000 2.290 1.000      6.608  23.000
    9 2.300 1.977  2.623 1.000 1.00000 2.300 1.000      9.635  23.000
   10 2.330 2.004  2.656 1.000 1.00000 2.340 1.000     21.965  23.000
   11 2.240 1.922  2.558 1.000 1.00000 2.250 1.000      0.914  23.000
   12 2.320 1.995  2.645 1.000 1.00000 2.320 1.000     19.504  23.000
   13 2.240 1.922  2.558 1.000 1.00000 2.240 1.000      1.200  23.000
   14 2.280 1.959  2.601 1.000 1.00000 2.290 1.000      5.274  23.000
   15 2.440 2.103  2.777 1.000 1.00000 2.440 1.000     42.980  23.000
   16 2.270 1.950  2.590 1.000 1.00000 2.260 1.000      2.533  23.000
   17 2.250 1.932  2.568 1.000 1.00000 2.250 1.000      0.607  23.000
   18 2.250 1.932  2.568 1.000 1.00000 2.250 1.000      0.788  23.000
   19 2.260 1.941  2.579 1.000 1.00000 2.260 1.000      1.441  23.000
   20 2.260 1.941  2.579 1.000 1.00000 2.260 1.000      1.273  23.000
   21 2.240 1.922  2.558 1.000 1.00000 2.240 1.000      1.844  23.000
   22 2.250 1.932  2.568 1.000 1.00000 2.250 1.000      0.616  23.000
   23 2.250 1.932  2.568 1.000 1.00000 2.250 1.000      0.647  23.000
   24 2.290 1.968  2.612 1.000 1.00000 2.290 1.000      7.580  23.000
   25 2.210 1.895  2.525 1.000 1.00000 2.200 1.000      7.330  23.000
   26 2.250 1.932  2.568 1.000 1.00000 2.250 1.000      0.583  23.000
   27 2.220 1.904  2.536 1.000 1.00000 2.220 1.000      5.046  23.000
   28 2.300 1.977  2.623 1.000 1.00000 2.300 1.000     11.684  23.000
   29 2.300 1.977  2.623 1.000 1.00000 2.300 1.000     11.821  23.000
   30 2.240 1.922  2.558 1.000 1.00000 2.240 1.000      1.630  23.000
   31 2.240 1.922  2.558 1.000 1.00000 2.240 1.000      1.078  23.000
   32 2.240 1.922  2.558 1.000 1.00000 2.250 1.000      0.950  23.000
   33 2.250 1.932  2.568 1.000 1.00000 2.250 1.000      1.173  23.000
   34 2.290 1.968  2.612 1.000 1.00000 2.290 1.000      5.695  23.000
   35 2.190 1.877  2.503 1.000 1.00000 2.190 1.000     10.472  23.000
   36 2.200 1.886  2.514 1.000 1.00000 2.200 1.000      8.168  23.000
   37 2.200 1.886  2.514 1.000 1.00000 2.200 1.000      8.073  23.000
   38 2.250 1.932  2.568 1.000 1.00000 2.250 1.000      0.947  23.000
   39 2.290 1.968  2.612 1.000 1.00000 2.290 1.000      6.212  23.000
   40 2.260 1.941  2.579 1.000 1.00000 2.260 1.000      1.785  23.000
   41 2.270 1.950  2.590 1.000 1.00000 2.260 1.000      3.017  23.000
   42 2.200 1.886  2.514 1.000 1.00000 2.200 1.000      7.485  23.000
   43 2.250 1.932  2.568 1.000 1.00000 2.250 1.000      0.934  23.000
   44 2.490 2.148  2.832 1.000 1.00000 2.490 1.000     55.572  23.000
   45 2.300 1.977  2.623 1.000 1.00000 2.300 1.000      9.212  23.000
   46 2.260 1.941  2.579 1.000 1.00000 2.260 1.000      1.811  23.000
   47 2.260 1.941  2.579 1.000 1.00000 2.260 1.000      1.372  23.000
   48 2.290 1.968  2.612 1.000 1.00000 2.290 1.000      5.387  23.000
   49 2.240 1.922  2.558 1.000 1.00000 2.240 1.000      1.098  23.000
   50 2.240 1.922  2.558 1.000 1.00000 2.240 1.000      1.940  23.000
   51 2.260 1.941  2.579 1.000 1.00000 2.260 1.000      1.632  23.000
   52 2.260 1.941  2.579 1.000 1.00000 2.260 1.000      1.653  23.000
   53 2.230 1.913  2.547 1.000 1.00000 2.240 1.000      3.050  23.000
   54 2.240 1.922  2.558 1.000 1.00000 2.240 1.000      1.148  23.000
   55 2.170 1.859  2.481 1.000 1.00000 2.150 1.000     11.418  23.000
   56 2.350 2.022  2.678 1.000 1.00000 2.350 1.000     25.868  23.000
   57 2.270 1.950  2.590 1.000 1.00000 2.260 1.000      2.903  23.000
   58 2.260 1.941  2.579 1.000 1.00000 2.260 1.000      1.737  23.000
   59 2.260 1.941  2.579 1.000 1.00000 2.260 1.000      1.277  23.000
   60 2.240 1.922  2.558 1.000 1.00000 2.250 1.000      0.746  23.000
   61 2.270 1.950  2.590 1.000 1.00000 2.260 1.000      2.531  23.000
   62 2.280 1.959  2.601 1.000 1.00000 2.280 1.000      4.090  23.000
   63 2.320 1.995  2.645 1.000 1.00000 2.310 1.000     17.990  23.000
   64 2.250 1.932  2.568 1.000 1.00000 2.250 1.000      0.652  23.000
   65 2.490 2.148  2.832 1.000 1.00000 2.490 1.000     56.533  23.000
   66 2.240 1.922  2.558 1.000 1.00000 2.240 1.000      1.165  23.000
   67 2.240 1.922  2.558 1.000 1.00000 2.250 1.000      0.899  23.000
   68 2.260 1.941  2.579 1.000 1.00000 2.260 1.000      1.439  23.000
   69 2.260 1.941  2.579 1.000 1.00000 2.260 1.000      1.803  23.000
   70 2.220 1.904  2.536 1.000 1.00000 2.220 1.000      5.527  23.000
   71 2.300 1.977  2.623 1.000 1.00000 2.300 1.000      9.363  23.000
   72 2.240 1.922  2.558 1.000 1.00000 2.250 1.000      0.748  23.000
   73 2.250 1.932  2.568 1.000 1.00000 2.250 1.000      0.954  23.000
   74 2.280 1.959  2.601 1.000 1.00000 2.290 1.000      4.685  23.000
   75 2.290 1.968  2.612 1.000 1.00000 2.290 1.000      7.749  23.000
   76 2.240 1.922  2.558 1.000 1.00000 2.250 1.000      0.953  23.000
   77 2.270 1.950  2.590 1.000 1.00000 2.260 1.000      3.735  23.000
   78 2.240 1.922  2.558 1.000 1.00000 2.250 1.000      0.839  23.000
   79 2.350 2.022  2.678 1.000 1.00000 2.350 1.000     27.461  23.000
   80 2.210 1.895  2.525 1.000 1.00000 2.200 1.000      7.300  23.000
   81 2.220 1.904  2.536 1.000 1.00000 2.220 1.000      4.387  23.000
   82 2.240 1.922  2.558 1.000 1.00000 2.240 1.000      1.155  23.000
   83 2.200 1.886  2.514 1.000 1.00000 2.200 1.000      8.162  23.000
   84 2.230 1.913  2.547 1.000 1.00000 2.240 1.000      3.006  23.000
   85 2.200 1.886  2.514 1.000 1.00000 2.200 1.000      8.941  23.000
   86 2.250 1.932  2.568 1.000 1.00000 2.250 1.000      1.678  23.000
   87 2.200 1.886  2.514 1.000 1.00000 2.200 1.000      8.525  23.000
   88 2.260 1.941  2.579 1.000 1.00000 2.260 1.000      1.308  23.000
   89 2.190 1.877  2.503 1.000 1.00000 2.190 1.000     10.472  23.000
   90 2.310 1.986  2.634 1.000 1.00000 2.310 1.000     13.433  23.000
   91 2.260 1.941  2.579 1.000 1.00000 2.260 1.000      1.632  23.000
   92 2.200 1.886  2.514 1.000 1.00000 2.200 1.000      8.443  23.000
   93 2.260 1.941  2.579 1.000 1.00000 2.260 1.000      1.294  23.000
   94 2.260 1.941  2.579 1.000 1.00000 2.260 1.000      1.502  23.000
   95 2.210 1.895  2.525 1.000 1.00000 2.220 1.000      5.669  23.000
   96 2.250 1.932  2.568 1.000 1.00000 2.250 1.000      1.314  23.000
   97 2.250 1.932  2.568 1.000 1.00000 2.250 1.000      0.654  23.000
   98 2.260 1.941  2.579 1.000 1.00000 2.260 1.000      1.966  23.000
   99 2.250 1.932  2.568 1.000 1.00000 2.250 1.000      0.680  23.000
  100 2.230 1.913  2.547 1.000 1.00000 2.240 1.000      2.983  23.000
