## File LOS/SB2_B2004a_2.0z_Mags_400.bpz  Fri Aug 12 23:37:38 2016
##
##Parameters used to run BPZ:
##
##AB_DIR=/home/lidenscheng/bpz-1.99.3//AB/
##ADD_CONTINUOUS_PROB=None
##ADD_SPEC_PROB=None
##CHECK=LOS/SB2_B2004a_2.0z_Mags_400.flux_comparison
##COLOR=no
##COLUMNS=losNoErrors.columns
##CONVOLVE_P=yes
##DELTA_M_0=0.0
##DZ=0.01
##EXCLUDE=none
##FC=None
##FILTER_DIR=/home/lidenscheng/MK_DirectSim/filters/
##GET_Z=yes
##INPUT=LOS/SB2_B2004a_2.0z_Mags_400.txt
##INTERACTIVE=yes
##INTERP=0
##MADAU=no
##MAG=yes
##MEAN_IGM=yes
##MERGE_PEAKS=no
##MIN_MAGERR=0.001
##MIN_RMS=0.05
##NEW_AB=no
##NMAX=None
##NTYPES=None
##N_PEAKS=1
##ODDS=0.95
##ONLY_TYPE=no
##OUTPUT=LOS/SB2_B2004a_2.0z_Mags_400.bpz
##PHOTO_ERRORS=no
##PLOTS=no
##PRIOR=none
##PROBS=no
##PROBS2=no
##PROBS_LITE=LOS/SB2_B2004a_2.0z_Mags_400.probs
##P_MIN=0.01
##SED_DIR=/home/lidenscheng/MK_DirectSim/SEDs/
##SPECTRA=SB2.list
##VERBOSE=yes
##ZC=None
##ZMAX=10.0
##ZMIN=0.01
##ZP_OFFSETS=0.0
##Z_THR=0
##
##Column information
##
# 1 ID
# 2 Z_B
# 3 Z_B_MIN
# 4 Z_B_MAX
# 5 T_B
# 6 ODDS    
# 7 Z_ML
# 8 T_ML
# 9 CHI-SQUARED
# 10 M_0
##
    1 2.040 1.742  2.338 1.000 1.00000 2.030 1.000      5.326  23.000
    2 2.030 1.733  2.327 1.000 1.00000 2.030 1.000      3.189  23.000
    3 2.020 1.724  2.316 1.000 1.00000 2.020 1.000      0.150  23.000
    4 2.160 1.850  2.470 1.000 1.00000 2.160 1.000     33.655  23.000
    5 2.060 1.760  2.360 1.000 1.00000 2.060 1.000      7.474  23.000
    6 2.060 1.760  2.360 1.000 1.00000 2.060 1.000      7.237  23.000
    7 2.060 1.760  2.360 1.000 1.00000 2.060 1.000     13.459  23.000
    8 2.060 1.760  2.360 1.000 1.00000 2.060 1.000      5.129  23.000
    9 2.060 1.760  2.360 1.000 1.00000 2.060 1.000      5.460  23.000
   10 2.020 1.724  2.316 1.000 1.00000 2.020 1.000      0.138  23.000
   11 2.060 1.760  2.360 1.000 1.00000 2.060 1.000      9.127  23.000
   12 2.030 1.733  2.327 1.000 1.00000 2.030 1.000      3.161  23.000
   13 2.030 1.733  2.327 1.000 1.00000 2.030 1.000      0.816  23.000
   14 2.060 1.760  2.360 1.000 1.00000 2.060 1.000      4.701  23.000
   15 2.030 1.733  2.327 1.000 1.00000 2.030 1.000      4.185  23.000
   16 2.020 1.724  2.316 1.000 1.00000 2.030 1.000      0.222  23.000
   17 2.060 1.760  2.360 1.000 1.00000 2.060 1.000      4.723  23.000
   18 2.060 1.760  2.360 1.000 1.00000 2.060 1.000      4.863  23.000
   19 2.030 1.733  2.327 1.000 1.00000 2.030 1.000      4.482  23.000
   20 2.060 1.760  2.360 1.000 1.00000 2.060 1.000     10.573  23.000
   21 2.070 1.769  2.371 1.000 1.00000 2.070 1.000     19.300  23.000
   22 2.060 1.760  2.360 1.000 1.00000 2.060 1.000      7.367  23.000
   23 2.070 1.769  2.371 1.000 1.00000 2.060 1.000     16.608  23.000
   24 2.030 1.733  2.327 1.000 1.00000 2.030 1.000      1.912  23.000
   25 2.160 1.850  2.470 1.000 1.00000 2.160 1.000     33.353  23.000
   26 2.070 1.769  2.371 1.000 1.00000 2.070 1.000     24.342  23.000
   27 2.030 1.733  2.327 1.000 1.00000 2.030 1.000      1.110  23.000
   28 2.060 1.760  2.360 1.000 1.00000 2.060 1.000      5.088  23.000
   29 2.030 1.733  2.327 1.000 1.00000 2.030 1.000      0.430  23.000
   30 2.030 1.733  2.327 1.000 1.00000 2.030 1.000      2.681  23.000
   31 2.060 1.760  2.360 1.000 1.00000 2.060 1.000      4.765  23.000
   32 2.030 1.733  2.327 1.000 1.00000 2.030 1.000      3.359  23.000
   33 2.060 1.760  2.360 1.000 1.00000 2.060 1.000      5.325  23.000
   34 2.020 1.724  2.316 1.000 1.00000 2.020 1.000      0.662  23.000
   35 2.060 1.760  2.360 1.000 1.00000 2.060 1.000      8.969  23.000
   36 2.020 1.724  2.316 1.000 1.00000 2.030 1.000      0.222  23.000
   37 2.020 1.724  2.316 1.000 1.00000 2.020 1.000      0.187  23.000
   38 2.020 1.724  2.316 1.000 1.00000 2.020 1.000      0.165  23.000
   39 2.030 1.733  2.327 1.000 1.00000 2.030 1.000      2.656  23.000
   40 2.060 1.760  2.360 1.000 1.00000 2.060 1.000      9.874  23.000
   41 2.030 1.733  2.327 1.000 1.00000 2.030 1.000      0.590  23.000
   42 2.060 1.760  2.360 1.000 1.00000 2.060 1.000      4.777  23.000
   43 2.060 1.760  2.360 1.000 1.00000 2.060 1.000     15.612  23.000
   44 2.030 1.733  2.327 1.000 1.00000 2.030 1.000      2.784  23.000
   45 2.060 1.760  2.360 1.000 1.00000 2.060 1.000     11.763  23.000
   46 2.060 1.760  2.360 1.000 1.00000 2.060 1.000      4.935  23.000
   47 2.030 1.733  2.327 1.000 1.00000 2.030 1.000      2.361  23.000
   48 2.060 1.760  2.360 1.000 1.00000 2.060 1.000      4.912  23.000
   49 2.030 1.733  2.327 1.000 1.00000 2.030 1.000      3.868  23.000
   50 2.030 1.733  2.327 1.000 1.00000 2.030 1.000      0.743  23.000
   51 2.040 1.742  2.338 1.000 1.00000 2.060 1.000      5.621  23.000
   52 2.060 1.760  2.360 1.000 1.00000 2.060 1.000      5.184  23.000
   53 2.030 1.733  2.327 1.000 1.00000 2.030 1.000      3.302  23.000
   54 2.030 1.733  2.327 1.000 1.00000 2.030 1.000      1.270  23.000
   55 2.060 1.760  2.360 1.000 1.00000 2.060 1.000      4.708  23.000
   56 2.030 1.733  2.327 1.000 1.00000 2.030 1.000      2.175  23.000
   57 2.060 1.760  2.360 1.000 1.00000 2.060 1.000      4.827  23.000
   58 2.020 1.724  2.316 1.000 1.00000 2.020 1.000      0.156  23.000
   59 2.020 1.724  2.316 1.000 1.00000 2.020 1.000      0.194  23.000
   60 2.030 1.733  2.327 1.000 1.00000 2.030 1.000      0.881  23.000
   61 2.070 1.769  2.371 1.000 1.00000 2.060 1.000     17.297  23.000
   62 2.060 1.760  2.360 1.000 1.00000 2.060 1.000      5.533  23.000
   63 2.060 1.760  2.360 1.000 1.00000 2.060 1.000     10.602  23.000
   64 2.030 1.733  2.327 1.000 1.00000 2.030 1.000      1.125  23.000
   65 2.060 1.760  2.360 1.000 1.00000 2.060 1.000      7.447  23.000
   66 2.060 1.760  2.360 1.000 1.00000 2.060 1.000     14.000  23.000
   67 2.060 1.760  2.360 1.000 1.00000 2.060 1.000      7.199  23.000
   68 2.030 1.733  2.327 1.000 1.00000 2.030 1.000      4.316  23.000
   69 2.030 1.733  2.327 1.000 1.00000 2.030 1.000      3.745  23.000
   70 2.060 1.760  2.360 1.000 1.00000 2.060 1.000      4.935  23.000
   71 2.060 1.760  2.360 1.000 1.00000 2.060 1.000      5.313  23.000
   72 2.020 1.724  2.316 1.000 1.00000 2.020 1.000      0.309  23.000
   73 2.020 1.724  2.316 1.000 1.00000 2.020 1.000      0.163  23.000
   74 2.060 1.760  2.360 1.000 1.00000 2.060 1.000      5.752  23.000
   75 2.060 1.760  2.360 1.000 1.00000 2.060 1.000      4.839  23.000
   76 2.060 1.760  2.360 1.000 1.00000 2.060 1.000      4.717  23.000
   77 2.020 1.724  2.316 1.000 1.00000 2.020 1.000      0.199  23.000
   78 2.060 1.760  2.360 1.000 1.00000 2.060 1.000      4.691  23.000
   79 2.060 1.760  2.360 1.000 1.00000 2.060 1.000      9.311  23.000
   80 2.060 1.760  2.360 1.000 1.00000 2.060 1.000      9.404  23.000
   81 2.020 1.724  2.316 1.000 1.00000 2.020 1.000      0.234  23.000
   82 2.030 1.733  2.327 1.000 1.00000 2.030 1.000      2.175  23.000
   83 2.060 1.760  2.360 1.000 1.00000 2.060 1.000      4.872  23.000
   84 2.060 1.760  2.360 1.000 1.00000 2.060 1.000      6.393  23.000
   85 2.030 1.733  2.327 1.000 1.00000 2.030 1.000      0.505  23.000
   86 2.060 1.760  2.360 1.000 1.00000 2.060 1.000      4.688  23.000
   87 2.030 1.733  2.327 1.000 1.00000 2.030 1.000      0.479  23.000
   88 2.070 1.769  2.371 1.000 1.00000 2.070 1.000     17.461  23.000
   89 2.030 1.733  2.327 1.000 1.00000 2.030 1.000      4.824  23.000
   90 2.030 1.733  2.327 1.000 1.00000 2.030 1.000      2.084  23.000
   91 2.030 1.733  2.327 1.000 1.00000 2.030 1.000      0.261  23.000
   92 2.030 1.733  2.327 1.000 1.00000 2.030 1.000      4.651  23.000
   93 2.030 1.733  2.327 1.000 1.00000 2.030 1.000      5.180  23.000
   94 2.070 1.769  2.371 1.000 1.00000 2.070 1.000     24.205  23.000
   95 2.030 1.733  2.327 1.000 1.00000 2.030 1.000      0.359  23.000
   96 2.060 1.760  2.360 1.000 1.00000 2.060 1.000      5.108  23.000
   97 2.020 1.724  2.316 1.000 1.00000 2.020 1.000      0.358  23.000
   98 2.020 1.724  2.316 1.000 1.00000 2.020 1.000      0.180  23.000
   99 2.050 1.751  2.349 1.000 1.00000 2.060 1.000      5.503  23.000
  100 2.030 1.733  2.327 1.000 1.00000 2.030 1.000      1.998  23.000
  101 2.060 1.760  2.360 1.000 1.00000 2.060 1.000      4.911  23.000
  102 2.030 1.733  2.327 1.000 1.00000 2.030 1.000      0.894  23.000
  103 2.060 1.760  2.360 1.000 1.00000 2.060 1.000      5.533  23.000
  104 2.030 1.733  2.327 1.000 1.00000 2.030 1.000      4.250  23.000
  105 2.060 1.760  2.360 1.000 1.00000 2.060 1.000      5.365  23.000
  106 2.060 1.760  2.360 1.000 1.00000 2.060 1.000      5.289  23.000
  107 2.060 1.760  2.360 1.000 1.00000 2.060 1.000      5.265  23.000
  108 2.020 1.724  2.316 1.000 1.00000 2.020 1.000      0.158  23.000
  109 2.020 1.724  2.316 1.000 1.00000 2.020 1.000      0.160  23.000
  110 2.030 1.733  2.327 1.000 1.00000 2.030 1.000      1.080  23.000
  111 2.020 1.724  2.316 1.000 1.00000 2.020 1.000      0.137  23.000
  112 2.030 1.733  2.327 1.000 1.00000 2.030 1.000      4.482  23.000
  113 2.060 1.760  2.360 1.000 1.00000 2.060 1.000     10.562  23.000
  114 2.030 1.733  2.327 1.000 1.00000 2.030 1.000      5.036  23.000
  115 2.030 1.733  2.327 1.000 1.00000 2.030 1.000      4.153  23.000
  116 2.020 1.724  2.316 1.000 1.00000 2.020 1.000      1.856  23.000
  117 2.060 1.760  2.360 1.000 1.00000 2.060 1.000      4.918  23.000
  118 2.030 1.733  2.327 1.000 1.00000 2.030 1.000      3.217  23.000
  119 2.060 1.760  2.360 1.000 1.00000 2.060 1.000      5.474  23.000
  120 2.060 1.760  2.360 1.000 1.00000 2.060 1.000      4.698  23.000
  121 2.060 1.760  2.360 1.000 1.00000 2.060 1.000      4.698  23.000
  122 2.030 1.733  2.327 1.000 1.00000 2.030 1.000      0.446  23.000
  123 2.020 1.724  2.316 1.000 1.00000 2.020 1.000      1.142  23.000
  124 2.020 1.724  2.316 1.000 1.00000 2.020 1.000      0.989  23.000
  125 2.040 1.742  2.338 1.000 1.00000 2.030 1.000      5.625  23.000
  126 2.060 1.760  2.360 1.000 1.00000 2.060 1.000      4.702  23.000
  127 2.080 1.778  2.382 1.000 1.00000 2.080 1.000     29.370  23.000
  128 2.060 1.760  2.360 1.000 1.00000 2.060 1.000      6.588  23.000
  129 2.030 1.733  2.327 1.000 1.00000 2.030 1.000      0.963  23.000
  130 2.060 1.760  2.360 1.000 1.00000 2.060 1.000      4.694  23.000
  131 2.030 1.733  2.327 1.000 1.00000 2.030 1.000      3.899  23.000
  132 2.030 1.733  2.327 1.000 1.00000 2.030 1.000      0.257  23.000
  133 2.060 1.760  2.360 1.000 1.00000 2.060 1.000      5.130  23.000
  134 2.060 1.760  2.360 1.000 1.00000 2.060 1.000      4.689  23.000
  135 2.020 1.724  2.316 1.000 1.00000 2.020 1.000      0.220  23.000
  136 2.030 1.733  2.327 1.000 1.00000 2.030 1.000      3.534  23.000
  137 2.070 1.769  2.371 1.000 1.00000 2.070 1.000     20.001  23.000
  138 2.030 1.733  2.327 1.000 1.00000 2.030 1.000      2.810  23.000
  139 2.020 1.724  2.316 1.000 1.00000 2.020 1.000      0.168  23.000
  140 2.030 1.733  2.327 1.000 1.00000 2.030 1.000      1.891  23.000
  141 2.060 1.760  2.360 1.000 1.00000 2.060 1.000     15.558  23.000
  142 2.030 1.733  2.327 1.000 1.00000 2.030 1.000      1.610  23.000
  143 2.030 1.733  2.327 1.000 1.00000 2.030 1.000      1.080  23.000
  144 2.060 1.760  2.360 1.000 1.00000 2.060 1.000      4.924  23.000
  145 2.060 1.760  2.360 1.000 1.00000 2.060 1.000      5.460  23.000
  146 2.070 1.769  2.371 1.000 1.00000 2.070 1.000     17.473  23.000
  147 2.030 1.733  2.327 1.000 1.00000 2.030 1.000      2.361  23.000
  148 2.030 1.733  2.327 1.000 1.00000 2.030 1.000      0.908  23.000
  149 2.030 1.733  2.327 1.000 1.00000 2.030 1.000      1.188  23.000
  150 2.020 1.724  2.316 1.000 1.00000 2.020 1.000      0.195  23.000
  151 2.030 1.733  2.327 1.000 1.00000 2.030 1.000      2.580  23.000
  152 2.060 1.760  2.360 1.000 1.00000 2.060 1.000      5.078  23.000
  153 2.030 1.733  2.327 1.000 1.00000 2.030 1.000      3.505  23.000
  154 2.030 1.733  2.327 1.000 1.00000 2.030 1.000      1.768  23.000
  155 2.060 1.760  2.360 1.000 1.00000 2.060 1.000      6.566  23.000
  156 2.060 1.760  2.360 1.000 1.00000 2.060 1.000      5.460  23.000
  157 2.030 1.733  2.327 1.000 1.00000 2.030 1.000      3.446  23.000
  158 2.060 1.760  2.360 1.000 1.00000 2.060 1.000      7.779  23.000
  159 2.060 1.760  2.360 1.000 1.00000 2.060 1.000      5.003  23.000
  160 2.030 1.733  2.327 1.000 1.00000 2.030 1.000      3.775  23.000
  161 2.030 1.733  2.327 1.000 1.00000 2.030 1.000      2.385  23.000
  162 2.060 1.760  2.360 1.000 1.00000 2.060 1.000      4.695  23.000
  163 2.030 1.733  2.327 1.000 1.00000 2.030 1.000      1.610  23.000
  164 2.060 1.760  2.360 1.000 1.00000 2.060 1.000     14.050  23.000
  165 2.030 1.733  2.327 1.000 1.00000 2.030 1.000      1.110  23.000
  166 2.060 1.760  2.360 1.000 1.00000 2.060 1.000     11.773  23.000
  167 2.060 1.760  2.360 1.000 1.00000 2.060 1.000      4.691  23.000
  168 2.020 1.724  2.316 1.000 1.00000 2.020 1.000      0.322  23.000
  169 2.080 1.778  2.382 1.000 1.00000 2.080 1.000     27.375  23.000
  170 2.030 1.733  2.327 1.000 1.00000 2.030 1.000      0.292  23.000
  171 2.030 1.733  2.327 1.000 1.00000 2.030 1.000      0.265  23.000
  172 2.060 1.760  2.360 1.000 1.00000 2.060 1.000      5.961  23.000
  173 2.030 1.733  2.327 1.000 1.00000 2.030 1.000      0.696  23.000
  174 2.030 1.733  2.327 1.000 1.00000 2.030 1.000      2.555  23.000
  175 2.020 1.724  2.316 1.000 1.00000 2.020 1.000      0.139  23.000
  176 2.020 1.724  2.316 1.000 1.00000 2.020 1.000      0.138  23.000
  177 2.060 1.760  2.360 1.000 1.00000 2.060 1.000      7.289  23.000
  178 2.030 1.733  2.327 1.000 1.00000 2.030 1.000      0.560  23.000
  179 2.030 1.733  2.327 1.000 1.00000 2.030 1.000      2.385  23.000
  180 2.060 1.760  2.360 1.000 1.00000 2.060 1.000      4.973  23.000
  181 2.030 1.733  2.327 1.000 1.00000 2.030 1.000      0.282  23.000
  182 2.030 1.733  2.327 1.000 1.00000 2.030 1.000      0.855  23.000
  183 2.080 1.778  2.382 1.000 1.00000 2.080 1.000     26.893  23.000
  184 2.060 1.760  2.360 1.000 1.00000 2.060 1.000      8.191  23.000
  185 2.020 1.724  2.316 1.000 1.00000 2.020 1.000      0.316  23.000
  186 2.060 1.760  2.360 1.000 1.00000 2.060 1.000      5.227  23.000
  187 2.020 1.724  2.316 1.000 1.00000 2.020 1.000      0.145  23.000
  188 2.030 1.733  2.327 1.000 1.00000 2.030 1.000      1.425  23.000
  189 2.030 1.733  2.327 1.000 1.00000 2.030 1.000      0.239  23.000
  190 2.060 1.760  2.360 1.000 1.00000 2.060 1.000      4.812  23.000
  191 2.060 1.760  2.360 1.000 1.00000 2.060 1.000      5.263  23.000
  192 2.060 1.760  2.360 1.000 1.00000 2.060 1.000      5.148  23.000
  193 2.030 1.733  2.327 1.000 1.00000 2.030 1.000      1.253  23.000
  194 2.160 1.850  2.470 1.000 1.00000 2.160 1.000     33.351  23.000
  195 2.030 1.733  2.327 1.000 1.00000 2.030 1.000      1.934  23.000
  196 2.030 1.733  2.327 1.000 1.00000 2.030 1.000      4.025  23.000
  197 2.060 1.760  2.360 1.000 1.00000 2.060 1.000      6.050  23.000
  198 2.030 1.733  2.327 1.000 1.00000 2.030 1.000      0.257  23.000
  199 2.060 1.760  2.360 1.000 1.00000 2.060 1.000      8.501  23.000
  200 2.020 1.724  2.316 1.000 1.00000 2.020 1.000      0.165  23.000
  201 2.030 1.733  2.327 1.000 1.00000 2.030 1.000      5.108  23.000
  202 2.020 1.724  2.316 1.000 1.00000 2.020 1.000      0.422  23.000
  203 2.040 1.742  2.338 1.000 1.00000 2.030 1.000      5.290  23.000
  204 2.060 1.760  2.360 1.000 1.00000 2.060 1.000      6.249  23.000
  205 2.160 1.850  2.470 1.000 1.00000 2.160 1.000     38.243  23.000
  206 2.030 1.733  2.327 1.000 1.00000 2.030 1.000      2.630  23.000
  207 2.060 1.760  2.360 1.000 1.00000 2.060 1.000      5.289  23.000
  208 2.060 1.760  2.360 1.000 1.00000 2.060 1.000      4.990  23.000
  209 2.020 1.724  2.316 1.000 1.00000 2.020 1.000      0.184  23.000
  210 2.020 1.724  2.316 1.000 1.00000 2.020 1.000      0.543  23.000
  211 2.060 1.760  2.360 1.000 1.00000 2.060 1.000      4.918  23.000
  212 2.060 1.760  2.360 1.000 1.00000 2.060 1.000      5.769  23.000
  213 2.060 1.760  2.360 1.000 1.00000 2.060 1.000      4.905  23.000
  214 2.060 1.760  2.360 1.000 1.00000 2.060 1.000     15.674  23.000
  215 2.030 1.733  2.327 1.000 1.00000 2.030 1.000      1.998  23.000
  216 2.020 1.724  2.316 1.000 1.00000 2.030 1.000      0.210  23.000
  217 2.070 1.769  2.371 1.000 1.00000 2.070 1.000     21.894  23.000
  218 2.030 1.733  2.327 1.000 1.00000 2.030 1.000      4.617  23.000
  219 2.060 1.760  2.360 1.000 1.00000 2.060 1.000      5.151  23.000
  220 2.160 1.850  2.470 1.000 1.00000 2.160 1.000     33.352  23.000
  221 2.060 1.760  2.360 1.000 1.00000 2.060 1.000      4.698  23.000
  222 2.060 1.760  2.360 1.000 1.00000 2.060 1.000      8.501  23.000
  223 2.060 1.760  2.360 1.000 1.00000 2.060 1.000      4.720  23.000
  224 2.020 1.724  2.316 1.000 1.00000 2.030 1.000      0.212  23.000
  225 2.030 1.733  2.327 1.000 1.00000 2.030 1.000      1.934  23.000
  226 2.060 1.760  2.360 1.000 1.00000 2.060 1.000      5.265  23.000
  227 2.060 1.760  2.360 1.000 1.00000 2.060 1.000      5.460  23.000
  228 2.060 1.760  2.360 1.000 1.00000 2.060 1.000      4.712  23.000
  229 2.020 1.724  2.316 1.000 1.00000 2.020 1.000      0.989  23.000
  230 2.030 1.733  2.327 1.000 1.00000 2.030 1.000      0.652  23.000
  231 2.060 1.760  2.360 1.000 1.00000 2.060 1.000      5.870  23.000
  232 2.020 1.724  2.316 1.000 1.00000 2.020 1.000      1.540  23.000
  233 2.060 1.760  2.360 1.000 1.00000 2.060 1.000      4.816  23.000
  234 2.030 1.733  2.327 1.000 1.00000 2.030 1.000      5.032  23.000
  235 2.030 1.733  2.327 1.000 1.00000 2.030 1.000      1.788  23.000
  236 2.030 1.733  2.327 1.000 1.00000 2.030 1.000      3.302  23.000
  237 2.030 1.733  2.327 1.000 1.00000 2.030 1.000      3.302  23.000
  238 2.060 1.760  2.360 1.000 1.00000 2.060 1.000      4.973  23.000
  239 2.060 1.760  2.360 1.000 1.00000 2.060 1.000      9.523  23.000
  240 2.030 1.733  2.327 1.000 1.00000 2.030 1.000      4.088  23.000
  241 2.060 1.760  2.360 1.000 1.00000 2.060 1.000      9.986  23.000
  242 2.030 1.733  2.327 1.000 1.00000 2.030 1.000      1.050  23.000
  243 2.060 1.760  2.360 1.000 1.00000 2.060 1.000      4.839  23.000
  244 2.070 1.769  2.371 1.000 1.00000 2.070 1.000     18.120  23.000
  245 2.060 1.760  2.360 1.000 1.00000 2.060 1.000     14.920  23.000
  246 2.030 1.733  2.327 1.000 1.00000 2.030 1.000      0.243  23.000
  247 2.060 1.760  2.360 1.000 1.00000 2.060 1.000      7.010  23.000
  248 2.070 1.769  2.371 1.000 1.00000 2.070 1.000     17.633  23.000
  249 2.020 1.724  2.316 1.000 1.00000 2.020 1.000      0.160  23.000
  250 2.030 1.733  2.327 1.000 1.00000 2.030 1.000      3.274  23.000
  251 2.020 1.724  2.316 1.000 1.00000 2.020 1.000      0.154  23.000
  252 2.060 1.760  2.360 1.000 1.00000 2.060 1.000      5.835  23.000
  253 2.020 1.724  2.316 1.000 1.00000 2.020 1.000      0.203  23.000
  254 2.060 1.760  2.360 1.000 1.00000 2.060 1.000      5.889  23.000
  255 2.030 1.733  2.327 1.000 1.00000 2.030 1.000      0.816  23.000
  256 2.030 1.733  2.327 1.000 1.00000 2.030 1.000      0.243  23.000
  257 2.060 1.760  2.360 1.000 1.00000 2.060 1.000      5.030  23.000
  258 2.060 1.760  2.360 1.000 1.00000 2.060 1.000      4.808  23.000
  259 2.060 1.760  2.360 1.000 1.00000 2.060 1.000      5.313  23.000
  260 2.060 1.760  2.360 1.000 1.00000 2.060 1.000      4.813  23.000
  261 2.030 1.733  2.327 1.000 1.00000 2.030 1.000      5.036  23.000
  262 2.060 1.760  2.360 1.000 1.00000 2.060 1.000      5.433  23.000
  263 2.060 1.760  2.360 1.000 1.00000 2.060 1.000      4.744  23.000
  264 2.060 1.760  2.360 1.000 1.00000 2.060 1.000      5.227  23.000
  265 2.030 1.733  2.327 1.000 1.00000 2.030 1.000      5.144  23.000
  266 2.030 1.733  2.327 1.000 1.00000 2.030 1.000      0.243  23.000
  267 2.030 1.733  2.327 1.000 1.00000 2.030 1.000      4.926  23.000
  268 2.060 1.760  2.360 1.000 1.00000 2.060 1.000     10.099  23.000
  269 2.060 1.760  2.360 1.000 1.00000 2.060 1.000      4.717  23.000
  270 2.030 1.733  2.327 1.000 1.00000 2.030 1.000      0.523  23.000
  271 2.060 1.760  2.360 1.000 1.00000 2.060 1.000      5.325  23.000
  272 2.030 1.733  2.327 1.000 1.00000 2.030 1.000      0.297  23.000
  273 2.060 1.760  2.360 1.000 1.00000 2.060 1.000      5.379  23.000
  274 2.060 1.760  2.360 1.000 1.00000 2.060 1.000      5.287  23.000
  275 2.020 1.724  2.316 1.000 1.00000 2.030 1.000      0.216  23.000
  276 2.030 1.733  2.327 1.000 1.00000 2.030 1.000      2.063  23.000
  277 2.060 1.760  2.360 1.000 1.00000 2.060 1.000      4.751  23.000
  278 2.050 1.751  2.349 1.000 1.00000 2.060 1.000      5.517  23.000
  279 2.060 1.760  2.360 1.000 1.00000 2.060 1.000      5.837  23.000
  280 2.030 1.733  2.327 1.000 1.00000 2.030 1.000      0.496  23.000
  281 2.060 1.760  2.360 1.000 1.00000 2.060 1.000      5.080  23.000
  282 2.020 1.724  2.316 1.000 1.00000 2.020 1.000      0.249  23.000
  283 2.030 1.733  2.327 1.000 1.00000 2.030 1.000      1.649  23.000
  284 2.060 1.760  2.360 1.000 1.00000 2.060 1.000      5.460  23.000
  285 2.030 1.733  2.327 1.000 1.00000 2.030 1.000      2.732  23.000
  286 2.040 1.742  2.338 1.000 1.00000 2.030 1.000      5.363  23.000
  287 2.030 1.733  2.327 1.000 1.00000 2.030 1.000      1.304  23.000
  288 2.020 1.724  2.316 1.000 1.00000 2.020 1.000      0.513  23.000
  289 2.030 1.733  2.327 1.000 1.00000 2.030 1.000      4.824  23.000
  290 2.030 1.733  2.327 1.000 1.00000 2.030 1.000      1.461  23.000
  291 2.020 1.724  2.316 1.000 1.00000 2.030 1.000      0.216  23.000
  292 2.030 1.733  2.327 1.000 1.00000 2.030 1.000      3.023  23.000
  293 2.070 1.769  2.371 1.000 1.00000 2.070 1.000     22.353  23.000
  294 2.060 1.760  2.360 1.000 1.00000 2.060 1.000      4.897  23.000
  295 2.060 1.760  2.360 1.000 1.00000 2.060 1.000     12.069  23.000
  296 2.050 1.751  2.349 1.000 1.00000 2.060 1.000      5.613  23.000
  297 2.060 1.760  2.360 1.000 1.00000 2.060 1.000     10.445  23.000
  298 2.020 1.724  2.316 1.000 1.00000 2.020 1.000      0.239  23.000
  299 2.020 1.724  2.316 1.000 1.00000 2.020 1.000      0.139  23.000
  300 2.020 1.724  2.316 1.000 1.00000 2.030 1.000      0.214  23.000
  301 2.050 1.751  2.349 1.000 1.00000 2.060 1.000      5.531  23.000
  302 2.060 1.760  2.360 1.000 1.00000 2.060 1.000      7.953  23.000
  303 2.060 1.760  2.360 1.000 1.00000 2.060 1.000      5.769  23.000
  304 2.060 1.760  2.360 1.000 1.00000 2.060 1.000      5.008  23.000
  305 2.060 1.760  2.360 1.000 1.00000 2.060 1.000      5.184  23.000
  306 2.060 1.760  2.360 1.000 1.00000 2.060 1.000      5.275  23.000
  307 2.020 1.724  2.316 1.000 1.00000 2.020 1.000      0.150  23.000
  308 2.060 1.760  2.360 1.000 1.00000 2.060 1.000      4.689  23.000
  309 2.020 1.724  2.316 1.000 1.00000 2.020 1.000      0.255  23.000
  310 2.060 1.760  2.360 1.000 1.00000 2.060 1.000      5.446  23.000
  311 2.060 1.760  2.360 1.000 1.00000 2.060 1.000      5.241  23.000
  312 2.030 1.733  2.327 1.000 1.00000 2.030 1.000      1.443  23.000
  313 2.030 1.733  2.327 1.000 1.00000 2.030 1.000      4.617  23.000
  314 2.080 1.778  2.382 1.000 1.00000 2.070 1.000     25.603  23.000
  315 2.160 1.850  2.470 1.000 1.00000 2.160 1.000     36.606  23.000
  316 2.060 1.760  2.360 1.000 1.00000 2.060 1.000      5.338  23.000
  317 2.030 1.733  2.327 1.000 1.00000 2.030 1.000      0.454  23.000
  318 2.030 1.733  2.327 1.000 1.00000 2.030 1.000      4.025  23.000
  319 2.020 1.724  2.316 1.000 1.00000 2.020 1.000      0.137  23.000
  320 2.020 1.724  2.316 1.000 1.00000 2.020 1.000      0.457  23.000
  321 2.030 1.733  2.327 1.000 1.00000 2.030 1.000      0.881  23.000
  322 2.060 1.760  2.360 1.000 1.00000 2.060 1.000      4.886  23.000
  323 2.060 1.760  2.360 1.000 1.00000 2.060 1.000      4.737  23.000
  324 2.020 1.724  2.316 1.000 1.00000 2.030 1.000      0.212  23.000
  325 2.030 1.733  2.327 1.000 1.00000 2.030 1.000      2.531  23.000
  326 2.060 1.760  2.360 1.000 1.00000 2.060 1.000      7.174  23.000
  327 2.060 1.760  2.360 1.000 1.00000 2.060 1.000      9.127  23.000
  328 2.030 1.733  2.327 1.000 1.00000 2.030 1.000      4.686  23.000
  329 2.030 1.733  2.327 1.000 1.00000 2.030 1.000      0.359  23.000
  330 2.060 1.760  2.360 1.000 1.00000 2.060 1.000     12.168  23.000
  331 2.060 1.760  2.360 1.000 1.00000 2.060 1.000      4.951  23.000
  332 2.040 1.742  2.338 1.000 1.00000 2.030 1.000      5.326  23.000
  333 2.020 1.724  2.316 1.000 1.00000 2.020 1.000      0.174  23.000
  334 2.030 1.733  2.327 1.000 1.00000 2.030 1.000      2.784  23.000
  335 2.060 1.760  2.360 1.000 1.00000 2.060 1.000      4.859  23.000
  336 2.060 1.760  2.360 1.000 1.00000 2.060 1.000      4.859  23.000
  337 2.070 1.769  2.371 1.000 1.00000 2.070 1.000     21.018  23.000
  338 2.060 1.760  2.360 1.000 1.00000 2.060 1.000      4.897  23.000
  339 2.020 1.724  2.316 1.000 1.00000 2.020 1.000      1.540  23.000
  340 2.060 1.760  2.360 1.000 1.00000 2.060 1.000      7.894  23.000
  341 2.030 1.733  2.327 1.000 1.00000 2.030 1.000      1.768  23.000
  342 2.060 1.760  2.360 1.000 1.00000 2.060 1.000      5.768  23.000
  343 2.020 1.724  2.316 1.000 1.00000 2.020 1.000      0.146  23.000
  344 2.030 1.733  2.327 1.000 1.00000 2.030 1.000      0.335  23.000
  345 2.020 1.724  2.316 1.000 1.00000 2.020 1.000      0.177  23.000
  346 2.030 1.733  2.327 1.000 1.00000 2.030 1.000      0.590  23.000
  347 2.040 1.742  2.338 1.000 1.00000 2.030 1.000      5.512  23.000
  348 2.020 1.724  2.316 1.000 1.00000 2.020 1.000      1.412  23.000
  349 2.020 1.724  2.316 1.000 1.00000 2.030 1.000      0.216  23.000
  350 2.030 1.733  2.327 1.000 1.00000 2.030 1.000      0.487  23.000
  351 2.020 1.724  2.316 1.000 1.00000 2.020 1.000      0.674  23.000
  352 2.030 1.733  2.327 1.000 1.00000 2.030 1.000      2.108  23.000
  353 2.020 1.724  2.316 1.000 1.00000 2.020 1.000      0.266  23.000
  354 2.020 1.724  2.316 1.000 1.00000 2.020 1.000      1.597  23.000
  355 2.030 1.733  2.327 1.000 1.00000 2.030 1.000      1.321  23.000
  356 2.030 1.733  2.327 1.000 1.00000 2.030 1.000      0.816  23.000
  357 2.160 1.850  2.470 1.000 1.00000 2.160 1.000     33.544  23.000
  358 2.020 1.724  2.316 1.000 1.00000 2.020 1.000      0.156  23.000
  359 2.030 1.733  2.327 1.000 1.00000 2.030 1.000      2.996  23.000
  360 2.030 1.733  2.327 1.000 1.00000 2.030 1.000      0.991  23.000
  361 2.060 1.760  2.360 1.000 1.00000 2.060 1.000      5.837  23.000
  362 2.060 1.760  2.360 1.000 1.00000 2.060 1.000      9.547  23.000
  363 2.030 1.733  2.327 1.000 1.00000 2.030 1.000      0.386  23.000
  364 2.030 1.733  2.327 1.000 1.00000 2.030 1.000      4.185  23.000
  365 2.020 1.724  2.316 1.000 1.00000 2.020 1.000      1.359  23.000
  366 2.030 1.733  2.327 1.000 1.00000 2.030 1.000      1.204  23.000
  367 2.060 1.760  2.360 1.000 1.00000 2.060 1.000      4.772  23.000
  368 2.060 1.760  2.360 1.000 1.00000 2.060 1.000      6.054  23.000
  369 2.080 1.778  2.382 1.000 1.00000 2.070 1.000     26.033  23.000
  370 2.030 1.733  2.327 1.000 1.00000 2.030 1.000      1.728  23.000
  371 2.020 1.724  2.316 1.000 1.00000 2.020 1.000      0.302  23.000
  372 2.070 1.769  2.371 1.000 1.00000 2.070 1.000     24.205  23.000
  373 2.060 1.760  2.360 1.000 1.00000 2.060 1.000     11.045  23.000
  374 2.020 1.724  2.316 1.000 1.00000 2.020 1.000      0.137  23.000
  375 2.060 1.760  2.360 1.000 1.00000 2.060 1.000      5.314  23.000
  376 2.060 1.760  2.360 1.000 1.00000 2.060 1.000      5.204  23.000
  377 2.030 1.733  2.327 1.000 1.00000 2.030 1.000      2.916  23.000
  378 2.060 1.760  2.360 1.000 1.00000 2.060 1.000      6.073  23.000
  379 2.060 1.760  2.360 1.000 1.00000 2.060 1.000      5.170  23.000
  380 2.030 1.733  2.327 1.000 1.00000 2.030 1.000      2.385  23.000
  381 2.030 1.733  2.327 1.000 1.00000 2.030 1.000      3.446  23.000
  382 2.030 1.733  2.327 1.000 1.00000 2.030 1.000      2.681  23.000
  383 2.060 1.760  2.360 1.000 1.00000 2.060 1.000      5.215  23.000
  384 2.060 1.760  2.360 1.000 1.00000 2.060 1.000      5.304  23.000
  385 2.060 1.760  2.360 1.000 1.00000 2.060 1.000      5.288  23.000
  386 2.030 1.733  2.327 1.000 1.00000 2.030 1.000      1.955  23.000
  387 2.060 1.760  2.360 1.000 1.00000 2.060 1.000      4.712  23.000
  388 2.020 1.724  2.316 1.000 1.00000 2.020 1.000      0.405  23.000
  389 2.030 1.733  2.327 1.000 1.00000 2.030 1.000      5.036  23.000
  390 2.030 1.733  2.327 1.000 1.00000 2.030 1.000      1.372  23.000
  391 2.060 1.760  2.360 1.000 1.00000 2.060 1.000      5.392  23.000
  392 2.030 1.733  2.327 1.000 1.00000 2.030 1.000      0.620  23.000
  393 2.020 1.724  2.316 1.000 1.00000 2.020 1.000      0.163  23.000
  394 2.060 1.760  2.360 1.000 1.00000 2.060 1.000     12.749  23.000
  395 2.020 1.724  2.316 1.000 1.00000 2.020 1.000      0.152  23.000
  396 2.060 1.760  2.360 1.000 1.00000 2.060 1.000      9.475  23.000
  397 2.020 1.724  2.316 1.000 1.00000 2.020 1.000      0.255  23.000
  398 2.050 1.751  2.349 1.000 1.00000 2.060 1.000      5.606  23.000
  399 2.060 1.760  2.360 1.000 1.00000 2.060 1.000      8.693  23.000
  400 2.060 1.760  2.360 1.000 1.00000 2.060 1.000      4.707  23.000
