## File LOS/SB2_B2004a_2.0z_Mags_800.bpz  Fri Aug 12 23:39:31 2016
##
##Parameters used to run BPZ:
##
##AB_DIR=/home/lidenscheng/bpz-1.99.3//AB/
##ADD_CONTINUOUS_PROB=None
##ADD_SPEC_PROB=None
##CHECK=LOS/SB2_B2004a_2.0z_Mags_800.flux_comparison
##COLOR=no
##COLUMNS=losNoErrors.columns
##CONVOLVE_P=yes
##DELTA_M_0=0.0
##DZ=0.01
##EXCLUDE=none
##FC=None
##FILTER_DIR=/home/lidenscheng/MK_DirectSim/filters/
##GET_Z=yes
##INPUT=LOS/SB2_B2004a_2.0z_Mags_800.txt
##INTERACTIVE=yes
##INTERP=0
##MADAU=no
##MAG=yes
##MEAN_IGM=yes
##MERGE_PEAKS=no
##MIN_MAGERR=0.001
##MIN_RMS=0.05
##NEW_AB=no
##NMAX=None
##NTYPES=None
##N_PEAKS=1
##ODDS=0.95
##ONLY_TYPE=no
##OUTPUT=LOS/SB2_B2004a_2.0z_Mags_800.bpz
##PHOTO_ERRORS=no
##PLOTS=no
##PRIOR=none
##PROBS=no
##PROBS2=no
##PROBS_LITE=LOS/SB2_B2004a_2.0z_Mags_800.probs
##P_MIN=0.01
##SED_DIR=/home/lidenscheng/MK_DirectSim/SEDs/
##SPECTRA=SB2.list
##VERBOSE=yes
##ZC=None
##ZMAX=10.0
##ZMIN=0.01
##ZP_OFFSETS=0.0
##Z_THR=0
##
##Column information
##
# 1 ID
# 2 Z_B
# 3 Z_B_MIN
# 4 Z_B_MAX
# 5 T_B
# 6 ODDS    
# 7 Z_ML
# 8 T_ML
# 9 CHI-SQUARED
# 10 M_0
##
    1 2.040 1.742  2.338 1.000 1.00000 2.030 1.000      5.326  23.000
    2 2.030 1.733  2.327 1.000 1.00000 2.030 1.000      3.189  23.000
    3 2.020 1.724  2.316 1.000 1.00000 2.020 1.000      0.150  23.000
    4 2.160 1.850  2.470 1.000 1.00000 2.160 1.000     33.655  23.000
    5 2.060 1.760  2.360 1.000 1.00000 2.060 1.000      7.474  23.000
    6 2.060 1.760  2.360 1.000 1.00000 2.060 1.000      7.237  23.000
    7 2.060 1.760  2.360 1.000 1.00000 2.060 1.000     13.459  23.000
    8 2.060 1.760  2.360 1.000 1.00000 2.060 1.000      5.129  23.000
    9 2.060 1.760  2.360 1.000 1.00000 2.060 1.000      5.460  23.000
   10 2.020 1.724  2.316 1.000 1.00000 2.020 1.000      0.138  23.000
   11 2.060 1.760  2.360 1.000 1.00000 2.060 1.000      9.127  23.000
   12 2.030 1.733  2.327 1.000 1.00000 2.030 1.000      3.161  23.000
   13 2.030 1.733  2.327 1.000 1.00000 2.030 1.000      0.816  23.000
   14 2.060 1.760  2.360 1.000 1.00000 2.060 1.000      4.701  23.000
   15 2.030 1.733  2.327 1.000 1.00000 2.030 1.000      4.185  23.000
   16 2.020 1.724  2.316 1.000 1.00000 2.030 1.000      0.222  23.000
   17 2.060 1.760  2.360 1.000 1.00000 2.060 1.000      4.723  23.000
   18 2.060 1.760  2.360 1.000 1.00000 2.060 1.000      4.863  23.000
   19 2.030 1.733  2.327 1.000 1.00000 2.030 1.000      4.482  23.000
   20 2.060 1.760  2.360 1.000 1.00000 2.060 1.000     10.573  23.000
   21 2.070 1.769  2.371 1.000 1.00000 2.070 1.000     19.300  23.000
   22 2.060 1.760  2.360 1.000 1.00000 2.060 1.000      7.367  23.000
   23 2.070 1.769  2.371 1.000 1.00000 2.060 1.000     16.608  23.000
   24 2.030 1.733  2.327 1.000 1.00000 2.030 1.000      1.912  23.000
   25 2.160 1.850  2.470 1.000 1.00000 2.160 1.000     33.353  23.000
   26 2.070 1.769  2.371 1.000 1.00000 2.070 1.000     24.342  23.000
   27 2.030 1.733  2.327 1.000 1.00000 2.030 1.000      1.110  23.000
   28 2.060 1.760  2.360 1.000 1.00000 2.060 1.000      5.088  23.000
   29 2.030 1.733  2.327 1.000 1.00000 2.030 1.000      0.430  23.000
   30 2.030 1.733  2.327 1.000 1.00000 2.030 1.000      2.681  23.000
   31 2.060 1.760  2.360 1.000 1.00000 2.060 1.000      4.765  23.000
   32 2.030 1.733  2.327 1.000 1.00000 2.030 1.000      3.359  23.000
   33 2.060 1.760  2.360 1.000 1.00000 2.060 1.000      5.325  23.000
   34 2.020 1.724  2.316 1.000 1.00000 2.020 1.000      0.662  23.000
   35 2.060 1.760  2.360 1.000 1.00000 2.060 1.000      8.969  23.000
   36 2.020 1.724  2.316 1.000 1.00000 2.030 1.000      0.222  23.000
   37 2.020 1.724  2.316 1.000 1.00000 2.020 1.000      0.187  23.000
   38 2.020 1.724  2.316 1.000 1.00000 2.020 1.000      0.165  23.000
   39 2.030 1.733  2.327 1.000 1.00000 2.030 1.000      2.656  23.000
   40 2.060 1.760  2.360 1.000 1.00000 2.060 1.000      9.874  23.000
   41 2.030 1.733  2.327 1.000 1.00000 2.030 1.000      0.590  23.000
   42 2.060 1.760  2.360 1.000 1.00000 2.060 1.000      4.777  23.000
   43 2.060 1.760  2.360 1.000 1.00000 2.060 1.000     15.612  23.000
   44 2.030 1.733  2.327 1.000 1.00000 2.030 1.000      2.784  23.000
   45 2.060 1.760  2.360 1.000 1.00000 2.060 1.000     11.763  23.000
   46 2.060 1.760  2.360 1.000 1.00000 2.060 1.000      4.935  23.000
   47 2.030 1.733  2.327 1.000 1.00000 2.030 1.000      2.361  23.000
   48 2.060 1.760  2.360 1.000 1.00000 2.060 1.000      4.912  23.000
   49 2.030 1.733  2.327 1.000 1.00000 2.030 1.000      3.868  23.000
   50 2.030 1.733  2.327 1.000 1.00000 2.030 1.000      0.743  23.000
   51 2.040 1.742  2.338 1.000 1.00000 2.060 1.000      5.621  23.000
   52 2.060 1.760  2.360 1.000 1.00000 2.060 1.000      5.184  23.000
   53 2.030 1.733  2.327 1.000 1.00000 2.030 1.000      3.302  23.000
   54 2.030 1.733  2.327 1.000 1.00000 2.030 1.000      1.270  23.000
   55 2.060 1.760  2.360 1.000 1.00000 2.060 1.000      4.708  23.000
   56 2.030 1.733  2.327 1.000 1.00000 2.030 1.000      2.175  23.000
   57 2.060 1.760  2.360 1.000 1.00000 2.060 1.000      4.827  23.000
   58 2.020 1.724  2.316 1.000 1.00000 2.020 1.000      0.156  23.000
   59 2.020 1.724  2.316 1.000 1.00000 2.020 1.000      0.194  23.000
   60 2.030 1.733  2.327 1.000 1.00000 2.030 1.000      0.881  23.000
   61 2.070 1.769  2.371 1.000 1.00000 2.060 1.000     17.297  23.000
   62 2.060 1.760  2.360 1.000 1.00000 2.060 1.000      5.533  23.000
   63 2.060 1.760  2.360 1.000 1.00000 2.060 1.000     10.602  23.000
   64 2.030 1.733  2.327 1.000 1.00000 2.030 1.000      1.125  23.000
   65 2.060 1.760  2.360 1.000 1.00000 2.060 1.000      7.447  23.000
   66 2.060 1.760  2.360 1.000 1.00000 2.060 1.000     14.000  23.000
   67 2.060 1.760  2.360 1.000 1.00000 2.060 1.000      7.199  23.000
   68 2.030 1.733  2.327 1.000 1.00000 2.030 1.000      4.316  23.000
   69 2.030 1.733  2.327 1.000 1.00000 2.030 1.000      3.745  23.000
   70 2.060 1.760  2.360 1.000 1.00000 2.060 1.000      4.935  23.000
   71 2.060 1.760  2.360 1.000 1.00000 2.060 1.000      5.313  23.000
   72 2.020 1.724  2.316 1.000 1.00000 2.020 1.000      0.309  23.000
   73 2.020 1.724  2.316 1.000 1.00000 2.020 1.000      0.163  23.000
   74 2.060 1.760  2.360 1.000 1.00000 2.060 1.000      5.752  23.000
   75 2.060 1.760  2.360 1.000 1.00000 2.060 1.000      4.839  23.000
   76 2.060 1.760  2.360 1.000 1.00000 2.060 1.000      4.717  23.000
   77 2.020 1.724  2.316 1.000 1.00000 2.020 1.000      0.199  23.000
   78 2.060 1.760  2.360 1.000 1.00000 2.060 1.000      4.691  23.000
   79 2.060 1.760  2.360 1.000 1.00000 2.060 1.000      9.311  23.000
   80 2.060 1.760  2.360 1.000 1.00000 2.060 1.000      9.404  23.000
   81 2.020 1.724  2.316 1.000 1.00000 2.020 1.000      0.234  23.000
   82 2.030 1.733  2.327 1.000 1.00000 2.030 1.000      2.175  23.000
   83 2.060 1.760  2.360 1.000 1.00000 2.060 1.000      4.872  23.000
   84 2.060 1.760  2.360 1.000 1.00000 2.060 1.000      6.393  23.000
   85 2.030 1.733  2.327 1.000 1.00000 2.030 1.000      0.505  23.000
   86 2.060 1.760  2.360 1.000 1.00000 2.060 1.000      4.688  23.000
   87 2.030 1.733  2.327 1.000 1.00000 2.030 1.000      0.479  23.000
   88 2.070 1.769  2.371 1.000 1.00000 2.070 1.000     17.461  23.000
   89 2.030 1.733  2.327 1.000 1.00000 2.030 1.000      4.824  23.000
   90 2.030 1.733  2.327 1.000 1.00000 2.030 1.000      2.084  23.000
   91 2.030 1.733  2.327 1.000 1.00000 2.030 1.000      0.261  23.000
   92 2.030 1.733  2.327 1.000 1.00000 2.030 1.000      4.651  23.000
   93 2.030 1.733  2.327 1.000 1.00000 2.030 1.000      5.180  23.000
   94 2.070 1.769  2.371 1.000 1.00000 2.070 1.000     24.205  23.000
   95 2.030 1.733  2.327 1.000 1.00000 2.030 1.000      0.359  23.000
   96 2.060 1.760  2.360 1.000 1.00000 2.060 1.000      5.108  23.000
   97 2.020 1.724  2.316 1.000 1.00000 2.020 1.000      0.358  23.000
   98 2.020 1.724  2.316 1.000 1.00000 2.020 1.000      0.180  23.000
   99 2.050 1.751  2.349 1.000 1.00000 2.060 1.000      5.503  23.000
  100 2.030 1.733  2.327 1.000 1.00000 2.030 1.000      1.998  23.000
  101 2.060 1.760  2.360 1.000 1.00000 2.060 1.000      4.911  23.000
  102 2.030 1.733  2.327 1.000 1.00000 2.030 1.000      0.894  23.000
  103 2.060 1.760  2.360 1.000 1.00000 2.060 1.000      5.533  23.000
  104 2.030 1.733  2.327 1.000 1.00000 2.030 1.000      4.250  23.000
  105 2.060 1.760  2.360 1.000 1.00000 2.060 1.000      5.365  23.000
  106 2.060 1.760  2.360 1.000 1.00000 2.060 1.000      5.289  23.000
  107 2.060 1.760  2.360 1.000 1.00000 2.060 1.000      5.265  23.000
  108 2.020 1.724  2.316 1.000 1.00000 2.020 1.000      0.158  23.000
  109 2.020 1.724  2.316 1.000 1.00000 2.020 1.000      0.160  23.000
  110 2.030 1.733  2.327 1.000 1.00000 2.030 1.000      1.080  23.000
  111 2.020 1.724  2.316 1.000 1.00000 2.020 1.000      0.137  23.000
  112 2.030 1.733  2.327 1.000 1.00000 2.030 1.000      4.482  23.000
  113 2.060 1.760  2.360 1.000 1.00000 2.060 1.000     10.562  23.000
  114 2.030 1.733  2.327 1.000 1.00000 2.030 1.000      5.036  23.000
  115 2.030 1.733  2.327 1.000 1.00000 2.030 1.000      4.153  23.000
  116 2.020 1.724  2.316 1.000 1.00000 2.020 1.000      1.856  23.000
  117 2.060 1.760  2.360 1.000 1.00000 2.060 1.000      4.918  23.000
  118 2.030 1.733  2.327 1.000 1.00000 2.030 1.000      3.217  23.000
  119 2.060 1.760  2.360 1.000 1.00000 2.060 1.000      5.474  23.000
  120 2.060 1.760  2.360 1.000 1.00000 2.060 1.000      4.698  23.000
  121 2.060 1.760  2.360 1.000 1.00000 2.060 1.000      4.698  23.000
  122 2.030 1.733  2.327 1.000 1.00000 2.030 1.000      0.446  23.000
  123 2.020 1.724  2.316 1.000 1.00000 2.020 1.000      1.142  23.000
  124 2.020 1.724  2.316 1.000 1.00000 2.020 1.000      0.989  23.000
  125 2.040 1.742  2.338 1.000 1.00000 2.030 1.000      5.625  23.000
  126 2.060 1.760  2.360 1.000 1.00000 2.060 1.000      4.702  23.000
  127 2.080 1.778  2.382 1.000 1.00000 2.080 1.000     29.370  23.000
  128 2.060 1.760  2.360 1.000 1.00000 2.060 1.000      6.588  23.000
  129 2.030 1.733  2.327 1.000 1.00000 2.030 1.000      0.963  23.000
  130 2.060 1.760  2.360 1.000 1.00000 2.060 1.000      4.694  23.000
  131 2.030 1.733  2.327 1.000 1.00000 2.030 1.000      3.899  23.000
  132 2.030 1.733  2.327 1.000 1.00000 2.030 1.000      0.257  23.000
  133 2.060 1.760  2.360 1.000 1.00000 2.060 1.000      5.130  23.000
  134 2.060 1.760  2.360 1.000 1.00000 2.060 1.000      4.689  23.000
  135 2.020 1.724  2.316 1.000 1.00000 2.020 1.000      0.220  23.000
  136 2.030 1.733  2.327 1.000 1.00000 2.030 1.000      3.534  23.000
  137 2.070 1.769  2.371 1.000 1.00000 2.070 1.000     20.001  23.000
  138 2.030 1.733  2.327 1.000 1.00000 2.030 1.000      2.810  23.000
  139 2.020 1.724  2.316 1.000 1.00000 2.020 1.000      0.168  23.000
  140 2.030 1.733  2.327 1.000 1.00000 2.030 1.000      1.891  23.000
  141 2.060 1.760  2.360 1.000 1.00000 2.060 1.000     15.558  23.000
  142 2.030 1.733  2.327 1.000 1.00000 2.030 1.000      1.610  23.000
  143 2.030 1.733  2.327 1.000 1.00000 2.030 1.000      1.080  23.000
  144 2.060 1.760  2.360 1.000 1.00000 2.060 1.000      4.924  23.000
  145 2.060 1.760  2.360 1.000 1.00000 2.060 1.000      5.460  23.000
  146 2.070 1.769  2.371 1.000 1.00000 2.070 1.000     17.473  23.000
  147 2.030 1.733  2.327 1.000 1.00000 2.030 1.000      2.361  23.000
  148 2.030 1.733  2.327 1.000 1.00000 2.030 1.000      0.908  23.000
  149 2.030 1.733  2.327 1.000 1.00000 2.030 1.000      1.188  23.000
  150 2.020 1.724  2.316 1.000 1.00000 2.020 1.000      0.195  23.000
  151 2.030 1.733  2.327 1.000 1.00000 2.030 1.000      2.580  23.000
  152 2.060 1.760  2.360 1.000 1.00000 2.060 1.000      5.078  23.000
  153 2.030 1.733  2.327 1.000 1.00000 2.030 1.000      3.505  23.000
  154 2.030 1.733  2.327 1.000 1.00000 2.030 1.000      1.768  23.000
  155 2.060 1.760  2.360 1.000 1.00000 2.060 1.000      6.566  23.000
  156 2.060 1.760  2.360 1.000 1.00000 2.060 1.000      5.460  23.000
  157 2.030 1.733  2.327 1.000 1.00000 2.030 1.000      3.446  23.000
  158 2.060 1.760  2.360 1.000 1.00000 2.060 1.000      7.779  23.000
  159 2.060 1.760  2.360 1.000 1.00000 2.060 1.000      5.003  23.000
  160 2.030 1.733  2.327 1.000 1.00000 2.030 1.000      3.775  23.000
  161 2.030 1.733  2.327 1.000 1.00000 2.030 1.000      2.385  23.000
  162 2.060 1.760  2.360 1.000 1.00000 2.060 1.000      4.695  23.000
  163 2.030 1.733  2.327 1.000 1.00000 2.030 1.000      1.610  23.000
  164 2.060 1.760  2.360 1.000 1.00000 2.060 1.000     14.050  23.000
  165 2.030 1.733  2.327 1.000 1.00000 2.030 1.000      1.110  23.000
  166 2.060 1.760  2.360 1.000 1.00000 2.060 1.000     11.773  23.000
  167 2.060 1.760  2.360 1.000 1.00000 2.060 1.000      4.691  23.000
  168 2.020 1.724  2.316 1.000 1.00000 2.020 1.000      0.322  23.000
  169 2.080 1.778  2.382 1.000 1.00000 2.080 1.000     27.375  23.000
  170 2.030 1.733  2.327 1.000 1.00000 2.030 1.000      0.292  23.000
  171 2.030 1.733  2.327 1.000 1.00000 2.030 1.000      0.265  23.000
  172 2.060 1.760  2.360 1.000 1.00000 2.060 1.000      5.961  23.000
  173 2.030 1.733  2.327 1.000 1.00000 2.030 1.000      0.696  23.000
  174 2.030 1.733  2.327 1.000 1.00000 2.030 1.000      2.555  23.000
  175 2.020 1.724  2.316 1.000 1.00000 2.020 1.000      0.139  23.000
  176 2.020 1.724  2.316 1.000 1.00000 2.020 1.000      0.138  23.000
  177 2.060 1.760  2.360 1.000 1.00000 2.060 1.000      7.289  23.000
  178 2.030 1.733  2.327 1.000 1.00000 2.030 1.000      0.560  23.000
  179 2.030 1.733  2.327 1.000 1.00000 2.030 1.000      2.385  23.000
  180 2.060 1.760  2.360 1.000 1.00000 2.060 1.000      4.973  23.000
  181 2.030 1.733  2.327 1.000 1.00000 2.030 1.000      0.282  23.000
  182 2.030 1.733  2.327 1.000 1.00000 2.030 1.000      0.855  23.000
  183 2.080 1.778  2.382 1.000 1.00000 2.080 1.000     26.893  23.000
  184 2.060 1.760  2.360 1.000 1.00000 2.060 1.000      8.191  23.000
  185 2.020 1.724  2.316 1.000 1.00000 2.020 1.000      0.316  23.000
  186 2.060 1.760  2.360 1.000 1.00000 2.060 1.000      5.227  23.000
  187 2.020 1.724  2.316 1.000 1.00000 2.020 1.000      0.145  23.000
  188 2.030 1.733  2.327 1.000 1.00000 2.030 1.000      1.425  23.000
  189 2.030 1.733  2.327 1.000 1.00000 2.030 1.000      0.239  23.000
  190 2.060 1.760  2.360 1.000 1.00000 2.060 1.000      4.812  23.000
  191 2.060 1.760  2.360 1.000 1.00000 2.060 1.000      5.263  23.000
  192 2.060 1.760  2.360 1.000 1.00000 2.060 1.000      5.148  23.000
  193 2.030 1.733  2.327 1.000 1.00000 2.030 1.000      1.253  23.000
  194 2.160 1.850  2.470 1.000 1.00000 2.160 1.000     33.351  23.000
  195 2.030 1.733  2.327 1.000 1.00000 2.030 1.000      1.934  23.000
  196 2.030 1.733  2.327 1.000 1.00000 2.030 1.000      4.025  23.000
  197 2.060 1.760  2.360 1.000 1.00000 2.060 1.000      6.050  23.000
  198 2.030 1.733  2.327 1.000 1.00000 2.030 1.000      0.257  23.000
  199 2.060 1.760  2.360 1.000 1.00000 2.060 1.000      8.501  23.000
  200 2.020 1.724  2.316 1.000 1.00000 2.020 1.000      0.165  23.000
  201 2.030 1.733  2.327 1.000 1.00000 2.030 1.000      5.108  23.000
  202 2.020 1.724  2.316 1.000 1.00000 2.020 1.000      0.422  23.000
  203 2.040 1.742  2.338 1.000 1.00000 2.030 1.000      5.290  23.000
  204 2.060 1.760  2.360 1.000 1.00000 2.060 1.000      6.249  23.000
  205 2.160 1.850  2.470 1.000 1.00000 2.160 1.000     38.243  23.000
  206 2.030 1.733  2.327 1.000 1.00000 2.030 1.000      2.630  23.000
  207 2.060 1.760  2.360 1.000 1.00000 2.060 1.000      5.289  23.000
  208 2.060 1.760  2.360 1.000 1.00000 2.060 1.000      4.990  23.000
  209 2.020 1.724  2.316 1.000 1.00000 2.020 1.000      0.184  23.000
  210 2.020 1.724  2.316 1.000 1.00000 2.020 1.000      0.543  23.000
  211 2.060 1.760  2.360 1.000 1.00000 2.060 1.000      4.918  23.000
  212 2.060 1.760  2.360 1.000 1.00000 2.060 1.000      5.769  23.000
  213 2.060 1.760  2.360 1.000 1.00000 2.060 1.000      4.905  23.000
  214 2.060 1.760  2.360 1.000 1.00000 2.060 1.000     15.674  23.000
  215 2.030 1.733  2.327 1.000 1.00000 2.030 1.000      1.998  23.000
  216 2.020 1.724  2.316 1.000 1.00000 2.030 1.000      0.210  23.000
  217 2.070 1.769  2.371 1.000 1.00000 2.070 1.000     21.894  23.000
  218 2.030 1.733  2.327 1.000 1.00000 2.030 1.000      4.617  23.000
  219 2.060 1.760  2.360 1.000 1.00000 2.060 1.000      5.151  23.000
  220 2.160 1.850  2.470 1.000 1.00000 2.160 1.000     33.352  23.000
  221 2.060 1.760  2.360 1.000 1.00000 2.060 1.000      4.698  23.000
  222 2.060 1.760  2.360 1.000 1.00000 2.060 1.000      8.501  23.000
  223 2.060 1.760  2.360 1.000 1.00000 2.060 1.000      4.720  23.000
  224 2.020 1.724  2.316 1.000 1.00000 2.030 1.000      0.212  23.000
  225 2.030 1.733  2.327 1.000 1.00000 2.030 1.000      1.934  23.000
  226 2.060 1.760  2.360 1.000 1.00000 2.060 1.000      5.265  23.000
  227 2.060 1.760  2.360 1.000 1.00000 2.060 1.000      5.460  23.000
  228 2.060 1.760  2.360 1.000 1.00000 2.060 1.000      4.712  23.000
  229 2.020 1.724  2.316 1.000 1.00000 2.020 1.000      0.989  23.000
  230 2.030 1.733  2.327 1.000 1.00000 2.030 1.000      0.652  23.000
  231 2.060 1.760  2.360 1.000 1.00000 2.060 1.000      5.870  23.000
  232 2.020 1.724  2.316 1.000 1.00000 2.020 1.000      1.540  23.000
  233 2.060 1.760  2.360 1.000 1.00000 2.060 1.000      4.816  23.000
  234 2.030 1.733  2.327 1.000 1.00000 2.030 1.000      5.032  23.000
  235 2.030 1.733  2.327 1.000 1.00000 2.030 1.000      1.788  23.000
  236 2.030 1.733  2.327 1.000 1.00000 2.030 1.000      3.302  23.000
  237 2.030 1.733  2.327 1.000 1.00000 2.030 1.000      3.302  23.000
  238 2.060 1.760  2.360 1.000 1.00000 2.060 1.000      4.973  23.000
  239 2.060 1.760  2.360 1.000 1.00000 2.060 1.000      9.523  23.000
  240 2.030 1.733  2.327 1.000 1.00000 2.030 1.000      4.088  23.000
  241 2.060 1.760  2.360 1.000 1.00000 2.060 1.000      9.986  23.000
  242 2.030 1.733  2.327 1.000 1.00000 2.030 1.000      1.050  23.000
  243 2.060 1.760  2.360 1.000 1.00000 2.060 1.000      4.839  23.000
  244 2.070 1.769  2.371 1.000 1.00000 2.070 1.000     18.120  23.000
  245 2.060 1.760  2.360 1.000 1.00000 2.060 1.000     14.920  23.000
  246 2.030 1.733  2.327 1.000 1.00000 2.030 1.000      0.243  23.000
  247 2.060 1.760  2.360 1.000 1.00000 2.060 1.000      7.010  23.000
  248 2.070 1.769  2.371 1.000 1.00000 2.070 1.000     17.633  23.000
  249 2.020 1.724  2.316 1.000 1.00000 2.020 1.000      0.160  23.000
  250 2.030 1.733  2.327 1.000 1.00000 2.030 1.000      3.274  23.000
  251 2.020 1.724  2.316 1.000 1.00000 2.020 1.000      0.154  23.000
  252 2.060 1.760  2.360 1.000 1.00000 2.060 1.000      5.835  23.000
  253 2.020 1.724  2.316 1.000 1.00000 2.020 1.000      0.203  23.000
  254 2.060 1.760  2.360 1.000 1.00000 2.060 1.000      5.889  23.000
  255 2.030 1.733  2.327 1.000 1.00000 2.030 1.000      0.816  23.000
  256 2.030 1.733  2.327 1.000 1.00000 2.030 1.000      0.243  23.000
  257 2.060 1.760  2.360 1.000 1.00000 2.060 1.000      5.030  23.000
  258 2.060 1.760  2.360 1.000 1.00000 2.060 1.000      4.808  23.000
  259 2.060 1.760  2.360 1.000 1.00000 2.060 1.000      5.313  23.000
  260 2.060 1.760  2.360 1.000 1.00000 2.060 1.000      4.813  23.000
  261 2.030 1.733  2.327 1.000 1.00000 2.030 1.000      5.036  23.000
  262 2.060 1.760  2.360 1.000 1.00000 2.060 1.000      5.433  23.000
  263 2.060 1.760  2.360 1.000 1.00000 2.060 1.000      4.744  23.000
  264 2.060 1.760  2.360 1.000 1.00000 2.060 1.000      5.227  23.000
  265 2.030 1.733  2.327 1.000 1.00000 2.030 1.000      5.144  23.000
  266 2.030 1.733  2.327 1.000 1.00000 2.030 1.000      0.243  23.000
  267 2.030 1.733  2.327 1.000 1.00000 2.030 1.000      4.926  23.000
  268 2.060 1.760  2.360 1.000 1.00000 2.060 1.000     10.099  23.000
  269 2.060 1.760  2.360 1.000 1.00000 2.060 1.000      4.717  23.000
  270 2.030 1.733  2.327 1.000 1.00000 2.030 1.000      0.523  23.000
  271 2.060 1.760  2.360 1.000 1.00000 2.060 1.000      5.325  23.000
  272 2.030 1.733  2.327 1.000 1.00000 2.030 1.000      0.297  23.000
  273 2.060 1.760  2.360 1.000 1.00000 2.060 1.000      5.379  23.000
  274 2.060 1.760  2.360 1.000 1.00000 2.060 1.000      5.287  23.000
  275 2.020 1.724  2.316 1.000 1.00000 2.030 1.000      0.216  23.000
  276 2.030 1.733  2.327 1.000 1.00000 2.030 1.000      2.063  23.000
  277 2.060 1.760  2.360 1.000 1.00000 2.060 1.000      4.751  23.000
  278 2.050 1.751  2.349 1.000 1.00000 2.060 1.000      5.517  23.000
  279 2.060 1.760  2.360 1.000 1.00000 2.060 1.000      5.837  23.000
  280 2.030 1.733  2.327 1.000 1.00000 2.030 1.000      0.496  23.000
  281 2.060 1.760  2.360 1.000 1.00000 2.060 1.000      5.080  23.000
  282 2.020 1.724  2.316 1.000 1.00000 2.020 1.000      0.249  23.000
  283 2.030 1.733  2.327 1.000 1.00000 2.030 1.000      1.649  23.000
  284 2.060 1.760  2.360 1.000 1.00000 2.060 1.000      5.460  23.000
  285 2.030 1.733  2.327 1.000 1.00000 2.030 1.000      2.732  23.000
  286 2.040 1.742  2.338 1.000 1.00000 2.030 1.000      5.363  23.000
  287 2.030 1.733  2.327 1.000 1.00000 2.030 1.000      1.304  23.000
  288 2.020 1.724  2.316 1.000 1.00000 2.020 1.000      0.513  23.000
  289 2.030 1.733  2.327 1.000 1.00000 2.030 1.000      4.824  23.000
  290 2.030 1.733  2.327 1.000 1.00000 2.030 1.000      1.461  23.000
  291 2.020 1.724  2.316 1.000 1.00000 2.030 1.000      0.216  23.000
  292 2.030 1.733  2.327 1.000 1.00000 2.030 1.000      3.023  23.000
  293 2.070 1.769  2.371 1.000 1.00000 2.070 1.000     22.353  23.000
  294 2.060 1.760  2.360 1.000 1.00000 2.060 1.000      4.897  23.000
  295 2.060 1.760  2.360 1.000 1.00000 2.060 1.000     12.069  23.000
  296 2.050 1.751  2.349 1.000 1.00000 2.060 1.000      5.613  23.000
  297 2.060 1.760  2.360 1.000 1.00000 2.060 1.000     10.445  23.000
  298 2.020 1.724  2.316 1.000 1.00000 2.020 1.000      0.239  23.000
  299 2.020 1.724  2.316 1.000 1.00000 2.020 1.000      0.139  23.000
  300 2.020 1.724  2.316 1.000 1.00000 2.030 1.000      0.214  23.000
  301 2.050 1.751  2.349 1.000 1.00000 2.060 1.000      5.531  23.000
  302 2.060 1.760  2.360 1.000 1.00000 2.060 1.000      7.953  23.000
  303 2.060 1.760  2.360 1.000 1.00000 2.060 1.000      5.769  23.000
  304 2.060 1.760  2.360 1.000 1.00000 2.060 1.000      5.008  23.000
  305 2.060 1.760  2.360 1.000 1.00000 2.060 1.000      5.184  23.000
  306 2.060 1.760  2.360 1.000 1.00000 2.060 1.000      5.275  23.000
  307 2.020 1.724  2.316 1.000 1.00000 2.020 1.000      0.150  23.000
  308 2.060 1.760  2.360 1.000 1.00000 2.060 1.000      4.689  23.000
  309 2.020 1.724  2.316 1.000 1.00000 2.020 1.000      0.255  23.000
  310 2.060 1.760  2.360 1.000 1.00000 2.060 1.000      5.446  23.000
  311 2.060 1.760  2.360 1.000 1.00000 2.060 1.000      5.241  23.000
  312 2.030 1.733  2.327 1.000 1.00000 2.030 1.000      1.443  23.000
  313 2.030 1.733  2.327 1.000 1.00000 2.030 1.000      4.617  23.000
  314 2.080 1.778  2.382 1.000 1.00000 2.070 1.000     25.603  23.000
  315 2.160 1.850  2.470 1.000 1.00000 2.160 1.000     36.606  23.000
  316 2.060 1.760  2.360 1.000 1.00000 2.060 1.000      5.338  23.000
  317 2.030 1.733  2.327 1.000 1.00000 2.030 1.000      0.454  23.000
  318 2.030 1.733  2.327 1.000 1.00000 2.030 1.000      4.025  23.000
  319 2.020 1.724  2.316 1.000 1.00000 2.020 1.000      0.137  23.000
  320 2.020 1.724  2.316 1.000 1.00000 2.020 1.000      0.457  23.000
  321 2.030 1.733  2.327 1.000 1.00000 2.030 1.000      0.881  23.000
  322 2.060 1.760  2.360 1.000 1.00000 2.060 1.000      4.886  23.000
  323 2.060 1.760  2.360 1.000 1.00000 2.060 1.000      4.737  23.000
  324 2.020 1.724  2.316 1.000 1.00000 2.030 1.000      0.212  23.000
  325 2.030 1.733  2.327 1.000 1.00000 2.030 1.000      2.531  23.000
  326 2.060 1.760  2.360 1.000 1.00000 2.060 1.000      7.174  23.000
  327 2.060 1.760  2.360 1.000 1.00000 2.060 1.000      9.127  23.000
  328 2.030 1.733  2.327 1.000 1.00000 2.030 1.000      4.686  23.000
  329 2.030 1.733  2.327 1.000 1.00000 2.030 1.000      0.359  23.000
  330 2.060 1.760  2.360 1.000 1.00000 2.060 1.000     12.168  23.000
  331 2.060 1.760  2.360 1.000 1.00000 2.060 1.000      4.951  23.000
  332 2.040 1.742  2.338 1.000 1.00000 2.030 1.000      5.326  23.000
  333 2.020 1.724  2.316 1.000 1.00000 2.020 1.000      0.174  23.000
  334 2.030 1.733  2.327 1.000 1.00000 2.030 1.000      2.784  23.000
  335 2.060 1.760  2.360 1.000 1.00000 2.060 1.000      4.859  23.000
  336 2.060 1.760  2.360 1.000 1.00000 2.060 1.000      4.859  23.000
  337 2.070 1.769  2.371 1.000 1.00000 2.070 1.000     21.018  23.000
  338 2.060 1.760  2.360 1.000 1.00000 2.060 1.000      4.897  23.000
  339 2.020 1.724  2.316 1.000 1.00000 2.020 1.000      1.540  23.000
  340 2.060 1.760  2.360 1.000 1.00000 2.060 1.000      7.894  23.000
  341 2.030 1.733  2.327 1.000 1.00000 2.030 1.000      1.768  23.000
  342 2.060 1.760  2.360 1.000 1.00000 2.060 1.000      5.768  23.000
  343 2.020 1.724  2.316 1.000 1.00000 2.020 1.000      0.146  23.000
  344 2.030 1.733  2.327 1.000 1.00000 2.030 1.000      0.335  23.000
  345 2.020 1.724  2.316 1.000 1.00000 2.020 1.000      0.177  23.000
  346 2.030 1.733  2.327 1.000 1.00000 2.030 1.000      0.590  23.000
  347 2.040 1.742  2.338 1.000 1.00000 2.030 1.000      5.512  23.000
  348 2.020 1.724  2.316 1.000 1.00000 2.020 1.000      1.412  23.000
  349 2.020 1.724  2.316 1.000 1.00000 2.030 1.000      0.216  23.000
  350 2.030 1.733  2.327 1.000 1.00000 2.030 1.000      0.487  23.000
  351 2.020 1.724  2.316 1.000 1.00000 2.020 1.000      0.674  23.000
  352 2.030 1.733  2.327 1.000 1.00000 2.030 1.000      2.108  23.000
  353 2.020 1.724  2.316 1.000 1.00000 2.020 1.000      0.266  23.000
  354 2.020 1.724  2.316 1.000 1.00000 2.020 1.000      1.597  23.000
  355 2.030 1.733  2.327 1.000 1.00000 2.030 1.000      1.321  23.000
  356 2.030 1.733  2.327 1.000 1.00000 2.030 1.000      0.816  23.000
  357 2.160 1.850  2.470 1.000 1.00000 2.160 1.000     33.544  23.000
  358 2.020 1.724  2.316 1.000 1.00000 2.020 1.000      0.156  23.000
  359 2.030 1.733  2.327 1.000 1.00000 2.030 1.000      2.996  23.000
  360 2.030 1.733  2.327 1.000 1.00000 2.030 1.000      0.991  23.000
  361 2.060 1.760  2.360 1.000 1.00000 2.060 1.000      5.837  23.000
  362 2.060 1.760  2.360 1.000 1.00000 2.060 1.000      9.547  23.000
  363 2.030 1.733  2.327 1.000 1.00000 2.030 1.000      0.386  23.000
  364 2.030 1.733  2.327 1.000 1.00000 2.030 1.000      4.185  23.000
  365 2.020 1.724  2.316 1.000 1.00000 2.020 1.000      1.359  23.000
  366 2.030 1.733  2.327 1.000 1.00000 2.030 1.000      1.204  23.000
  367 2.060 1.760  2.360 1.000 1.00000 2.060 1.000      4.772  23.000
  368 2.060 1.760  2.360 1.000 1.00000 2.060 1.000      6.054  23.000
  369 2.080 1.778  2.382 1.000 1.00000 2.070 1.000     26.033  23.000
  370 2.030 1.733  2.327 1.000 1.00000 2.030 1.000      1.728  23.000
  371 2.020 1.724  2.316 1.000 1.00000 2.020 1.000      0.302  23.000
  372 2.070 1.769  2.371 1.000 1.00000 2.070 1.000     24.205  23.000
  373 2.060 1.760  2.360 1.000 1.00000 2.060 1.000     11.045  23.000
  374 2.020 1.724  2.316 1.000 1.00000 2.020 1.000      0.137  23.000
  375 2.060 1.760  2.360 1.000 1.00000 2.060 1.000      5.314  23.000
  376 2.060 1.760  2.360 1.000 1.00000 2.060 1.000      5.204  23.000
  377 2.030 1.733  2.327 1.000 1.00000 2.030 1.000      2.916  23.000
  378 2.060 1.760  2.360 1.000 1.00000 2.060 1.000      6.073  23.000
  379 2.060 1.760  2.360 1.000 1.00000 2.060 1.000      5.170  23.000
  380 2.030 1.733  2.327 1.000 1.00000 2.030 1.000      2.385  23.000
  381 2.030 1.733  2.327 1.000 1.00000 2.030 1.000      3.446  23.000
  382 2.030 1.733  2.327 1.000 1.00000 2.030 1.000      2.681  23.000
  383 2.060 1.760  2.360 1.000 1.00000 2.060 1.000      5.215  23.000
  384 2.060 1.760  2.360 1.000 1.00000 2.060 1.000      5.304  23.000
  385 2.060 1.760  2.360 1.000 1.00000 2.060 1.000      5.288  23.000
  386 2.030 1.733  2.327 1.000 1.00000 2.030 1.000      1.955  23.000
  387 2.060 1.760  2.360 1.000 1.00000 2.060 1.000      4.712  23.000
  388 2.020 1.724  2.316 1.000 1.00000 2.020 1.000      0.405  23.000
  389 2.030 1.733  2.327 1.000 1.00000 2.030 1.000      5.036  23.000
  390 2.030 1.733  2.327 1.000 1.00000 2.030 1.000      1.372  23.000
  391 2.060 1.760  2.360 1.000 1.00000 2.060 1.000      5.392  23.000
  392 2.030 1.733  2.327 1.000 1.00000 2.030 1.000      0.620  23.000
  393 2.020 1.724  2.316 1.000 1.00000 2.020 1.000      0.163  23.000
  394 2.060 1.760  2.360 1.000 1.00000 2.060 1.000     12.749  23.000
  395 2.020 1.724  2.316 1.000 1.00000 2.020 1.000      0.152  23.000
  396 2.060 1.760  2.360 1.000 1.00000 2.060 1.000      9.475  23.000
  397 2.020 1.724  2.316 1.000 1.00000 2.020 1.000      0.255  23.000
  398 2.050 1.751  2.349 1.000 1.00000 2.060 1.000      5.606  23.000
  399 2.060 1.760  2.360 1.000 1.00000 2.060 1.000      8.693  23.000
  400 2.060 1.760  2.360 1.000 1.00000 2.060 1.000      4.707  23.000
  401 2.020 1.724  2.316 1.000 1.00000 2.020 1.000      0.174  23.000
  402 2.030 1.733  2.327 1.000 1.00000 2.030 1.000      1.237  23.000
  403 2.060 1.760  2.360 1.000 1.00000 2.060 1.000     11.590  23.000
  404 2.060 1.760  2.360 1.000 1.00000 2.060 1.000      4.747  23.000
  405 2.030 1.733  2.327 1.000 1.00000 2.030 1.000      2.108  23.000
  406 2.030 1.733  2.327 1.000 1.00000 2.030 1.000      1.461  23.000
  407 2.060 1.760  2.360 1.000 1.00000 2.060 1.000      5.313  23.000
  408 2.050 1.751  2.349 1.000 1.00000 2.060 1.000      5.517  23.000
  409 2.060 1.760  2.360 1.000 1.00000 2.060 1.000      6.793  23.000
  410 2.030 1.733  2.327 1.000 1.00000 2.030 1.000      3.245  23.000
  411 2.030 1.733  2.327 1.000 1.00000 2.030 1.000      5.001  23.000
  412 2.060 1.760  2.360 1.000 1.00000 2.060 1.000     14.972  23.000
  413 2.020 1.724  2.316 1.000 1.00000 2.020 1.000      0.543  23.000
  414 2.060 1.760  2.360 1.000 1.00000 2.060 1.000      4.843  23.000
  415 2.030 1.733  2.327 1.000 1.00000 2.030 1.000      2.506  23.000
  416 2.060 1.760  2.360 1.000 1.00000 2.060 1.000      4.702  23.000
  417 2.060 1.760  2.360 1.000 1.00000 2.060 1.000      4.865  23.000
  418 2.060 1.760  2.360 1.000 1.00000 2.060 1.000      4.690  23.000
  419 2.020 1.724  2.316 1.000 1.00000 2.020 1.000      0.150  23.000
  420 2.060 1.760  2.360 1.000 1.00000 2.060 1.000      4.689  23.000
  421 2.020 1.724  2.316 1.000 1.00000 2.020 1.000      0.199  23.000
  422 2.030 1.733  2.327 1.000 1.00000 2.030 1.000      0.767  23.000
  423 2.060 1.760  2.360 1.000 1.00000 2.060 1.000     10.812  23.000
  424 2.030 1.733  2.327 1.000 1.00000 2.030 1.000      1.050  23.000
  425 2.060 1.760  2.360 1.000 1.00000 2.060 1.000      7.501  23.000
  426 2.030 1.733  2.327 1.000 1.00000 2.030 1.000      1.535  23.000
  427 2.060 1.760  2.360 1.000 1.00000 2.060 1.000      4.908  23.000
  428 2.030 1.733  2.327 1.000 1.00000 2.030 1.000      0.685  23.000
  429 2.030 1.733  2.327 1.000 1.00000 2.030 1.000      0.273  23.000
  430 2.030 1.733  2.327 1.000 1.00000 2.030 1.000      5.144  23.000
  431 2.060 1.760  2.360 1.000 1.00000 2.060 1.000      4.689  23.000
  432 2.030 1.733  2.327 1.000 1.00000 2.030 1.000      3.993  23.000
  433 2.030 1.733  2.327 1.000 1.00000 2.030 1.000      0.610  23.000
  434 2.030 1.733  2.327 1.000 1.00000 2.030 1.000      5.108  23.000
  435 2.030 1.733  2.327 1.000 1.00000 2.030 1.000      1.516  23.000
  436 2.060 1.760  2.360 1.000 1.00000 2.060 1.000      4.703  23.000
  437 2.060 1.760  2.360 1.000 1.00000 2.060 1.000      4.792  23.000
  438 2.020 1.724  2.316 1.000 1.00000 2.020 1.000      0.160  23.000
  439 2.050 1.751  2.349 1.000 1.00000 2.060 1.000      5.606  23.000
  440 2.030 1.733  2.327 1.000 1.00000 2.030 1.000      0.243  23.000
  441 2.060 1.760  2.360 1.000 1.00000 2.060 1.000      4.865  23.000
  442 2.060 1.760  2.360 1.000 1.00000 2.060 1.000      7.059  23.000
  443 2.030 1.733  2.327 1.000 1.00000 2.030 1.000      3.775  23.000
  444 2.070 1.769  2.371 1.000 1.00000 2.070 1.000     19.058  23.000
  445 2.050 1.751  2.349 1.000 1.00000 2.060 1.000      5.591  23.000
  446 2.030 1.733  2.327 1.000 1.00000 2.030 1.000      0.430  23.000
  447 2.060 1.760  2.360 1.000 1.00000 2.060 1.000      6.249  23.000
  448 2.020 1.724  2.316 1.000 1.00000 2.020 1.000      0.152  23.000
  449 2.030 1.733  2.327 1.000 1.00000 2.030 1.000      4.482  23.000
  450 2.020 1.724  2.316 1.000 1.00000 2.020 1.000      0.141  23.000
  451 2.060 1.760  2.360 1.000 1.00000 2.060 1.000      4.718  23.000
  452 2.030 1.733  2.327 1.000 1.00000 2.030 1.000      0.719  23.000
  453 2.060 1.760  2.360 1.000 1.00000 2.060 1.000     14.302  23.000
  454 2.020 1.724  2.316 1.000 1.00000 2.020 1.000      0.174  23.000
  455 2.060 1.760  2.360 1.000 1.00000 2.060 1.000      5.227  23.000
  456 2.030 1.733  2.327 1.000 1.00000 2.030 1.000      2.314  23.000
  457 2.060 1.760  2.360 1.000 1.00000 2.060 1.000      4.943  23.000
  458 2.030 1.733  2.327 1.000 1.00000 2.030 1.000      4.217  23.000
  459 2.060 1.760  2.360 1.000 1.00000 2.060 1.000      5.533  23.000
  460 2.060 1.760  2.360 1.000 1.00000 2.060 1.000      6.351  23.000
  461 2.060 1.760  2.360 1.000 1.00000 2.060 1.000      4.768  23.000
  462 2.060 1.760  2.360 1.000 1.00000 2.060 1.000      4.719  23.000
  463 2.060 1.760  2.360 1.000 1.00000 2.060 1.000      5.039  23.000
  464 2.030 1.733  2.327 1.000 1.00000 2.030 1.000      4.120  23.000
  465 2.020 1.724  2.316 1.000 1.00000 2.020 1.000      0.163  23.000
  466 2.020 1.724  2.316 1.000 1.00000 2.030 1.000      0.212  23.000
  467 2.030 1.733  2.327 1.000 1.00000 2.030 1.000      0.935  23.000
  468 2.060 1.760  2.360 1.000 1.00000 2.060 1.000      8.726  23.000
  469 2.060 1.760  2.360 1.000 1.00000 2.060 1.000      6.393  23.000
  470 2.060 1.760  2.360 1.000 1.00000 2.060 1.000      6.588  23.000
  471 2.030 1.733  2.327 1.000 1.00000 2.030 1.000      1.976  23.000
  472 2.030 1.733  2.327 1.000 1.00000 2.030 1.000      1.304  23.000
  473 2.060 1.760  2.360 1.000 1.00000 2.060 1.000      5.078  23.000
  474 2.030 1.733  2.327 1.000 1.00000 2.030 1.000      4.720  23.000
  475 2.030 1.733  2.327 1.000 1.00000 2.030 1.000      5.036  23.000
  476 2.030 1.733  2.327 1.000 1.00000 2.030 1.000      0.269  23.000
  477 2.060 1.760  2.360 1.000 1.00000 2.060 1.000      4.701  23.000
  478 2.070 1.769  2.371 1.000 1.00000 2.070 1.000     23.260  23.000
  479 2.060 1.760  2.360 1.000 1.00000 2.060 1.000     13.219  23.000
  480 2.020 1.724  2.316 1.000 1.00000 2.030 1.000      0.214  23.000
  481 2.030 1.733  2.327 1.000 1.00000 2.030 1.000      0.470  23.000
  482 2.030 1.733  2.327 1.000 1.00000 2.030 1.000      1.768  23.000
  483 2.030 1.733  2.327 1.000 1.00000 2.030 1.000      0.415  23.000
  484 2.060 1.760  2.360 1.000 1.00000 2.060 1.000     10.290  23.000
  485 2.030 1.733  2.327 1.000 1.00000 2.030 1.000      3.023  23.000
  486 2.020 1.724  2.316 1.000 1.00000 2.020 1.000      0.158  23.000
  487 2.060 1.760  2.360 1.000 1.00000 2.060 1.000      4.905  23.000
  488 2.060 1.760  2.360 1.000 1.00000 2.060 1.000      5.405  23.000
  489 2.020 1.724  2.316 1.000 1.00000 2.020 1.000      0.171  23.000
  490 2.030 1.733  2.327 1.000 1.00000 2.030 1.000      1.287  23.000
  491 2.030 1.733  2.327 1.000 1.00000 2.030 1.000      0.265  23.000
  492 2.060 1.760  2.360 1.000 1.00000 2.060 1.000      5.148  23.000
  493 2.030 1.733  2.327 1.000 1.00000 2.030 1.000      4.755  23.000
  494 2.030 1.733  2.327 1.000 1.00000 2.030 1.000      0.373  23.000
  495 2.060 1.760  2.360 1.000 1.00000 2.060 1.000      4.905  23.000
  496 2.030 1.733  2.327 1.000 1.00000 2.030 1.000      4.415  23.000
  497 2.060 1.760  2.360 1.000 1.00000 2.060 1.000      5.446  23.000
  498 2.060 1.760  2.360 1.000 1.00000 2.060 1.000      5.227  23.000
  499 2.020 1.724  2.316 1.000 1.00000 2.020 1.000      0.171  23.000
  500 2.060 1.760  2.360 1.000 1.00000 2.060 1.000      5.181  23.000
  501 2.060 1.760  2.360 1.000 1.00000 2.060 1.000      5.365  23.000
  502 2.060 1.760  2.360 1.000 1.00000 2.060 1.000      4.715  23.000
  503 2.060 1.760  2.360 1.000 1.00000 2.060 1.000      4.703  23.000
  504 2.060 1.760  2.360 1.000 1.00000 2.060 1.000      7.923  23.000
  505 2.060 1.760  2.360 1.000 1.00000 2.060 1.000      4.739  23.000
  506 2.060 1.760  2.360 1.000 1.00000 2.060 1.000      4.886  23.000
  507 2.030 1.733  2.327 1.000 1.00000 2.030 1.000      2.707  23.000
  508 2.060 1.760  2.360 1.000 1.00000 2.060 1.000      4.688  23.000
  509 2.030 1.733  2.327 1.000 1.00000 2.030 1.000      0.446  23.000
  510 2.060 1.760  2.360 1.000 1.00000 2.060 1.000      5.275  23.000
  511 2.020 1.724  2.316 1.000 1.00000 2.020 1.000      0.137  23.000
  512 2.060 1.760  2.360 1.000 1.00000 2.060 1.000      4.700  23.000
  513 2.070 1.769  2.371 1.000 1.00000 2.070 1.000     17.836  23.000
  514 2.030 1.733  2.327 1.000 1.00000 2.030 1.000      3.388  23.000
  515 2.060 1.760  2.360 1.000 1.00000 2.060 1.000      5.075  23.000
  516 2.040 1.742  2.338 1.000 1.00000 2.030 1.000      5.400  23.000
  517 2.060 1.760  2.360 1.000 1.00000 2.060 1.000      5.853  23.000
  518 2.030 1.733  2.327 1.000 1.00000 2.030 1.000      2.108  23.000
  519 2.030 1.733  2.327 1.000 1.00000 2.030 1.000      4.445  23.000
  520 2.020 1.724  2.316 1.000 1.00000 2.020 1.000      0.617  23.000
  521 2.030 1.733  2.327 1.000 1.00000 2.030 1.000      3.534  23.000
  522 2.030 1.733  2.327 1.000 1.00000 2.030 1.000      0.269  23.000
  523 2.020 1.724  2.316 1.000 1.00000 2.020 1.000      0.381  23.000
  524 2.060 1.760  2.360 1.000 1.00000 2.060 1.000      4.852  23.000
  525 2.060 1.760  2.360 1.000 1.00000 2.060 1.000      5.421  23.000
  526 2.060 1.760  2.360 1.000 1.00000 2.060 1.000     14.100  23.000
  527 2.060 1.760  2.360 1.000 1.00000 2.060 1.000      8.131  23.000
  528 2.030 1.733  2.327 1.000 1.00000 2.030 1.000      2.630  23.000
  529 2.020 1.724  2.316 1.000 1.00000 2.020 1.000      0.138  23.000
  530 2.060 1.760  2.360 1.000 1.00000 2.060 1.000      4.797  23.000
  531 2.060 1.760  2.360 1.000 1.00000 2.060 1.000      4.706  23.000
  532 2.020 1.724  2.316 1.000 1.00000 2.030 1.000      0.212  23.000
  533 2.060 1.760  2.360 1.000 1.00000 2.060 1.000      5.003  23.000
  534 2.060 1.760  2.360 1.000 1.00000 2.060 1.000      6.149  23.000
  535 2.060 1.760  2.360 1.000 1.00000 2.060 1.000      6.228  23.000
  536 2.030 1.733  2.327 1.000 1.00000 2.030 1.000      3.331  23.000
  537 2.060 1.760  2.360 1.000 1.00000 2.060 1.000      4.973  23.000
  538 2.030 1.733  2.327 1.000 1.00000 2.030 1.000      5.036  23.000
  539 2.090 1.787  2.393 1.000 1.00000 2.090 1.000     32.147  23.000
  540 2.060 1.760  2.360 1.000 1.00000 2.060 1.000      5.017  23.000
  541 2.030 1.733  2.327 1.000 1.00000 2.030 1.000      0.868  23.000
  542 2.070 1.769  2.371 1.000 1.00000 2.070 1.000     19.753  23.000
  543 2.030 1.733  2.327 1.000 1.00000 2.030 1.000      0.663  23.000
  544 2.030 1.733  2.327 1.000 1.00000 2.030 1.000      2.555  23.000
  545 2.060 1.760  2.360 1.000 1.00000 2.060 1.000      4.973  23.000
  546 2.030 1.733  2.327 1.000 1.00000 2.030 1.000      2.555  23.000
  547 2.030 1.733  2.327 1.000 1.00000 2.030 1.000      3.624  23.000
  548 2.060 1.760  2.360 1.000 1.00000 2.060 1.000      6.793  23.000
  549 2.060 1.760  2.360 1.000 1.00000 2.060 1.000      6.724  23.000
  550 2.060 1.760  2.360 1.000 1.00000 2.060 1.000      9.161  23.000
  551 2.060 1.760  2.360 1.000 1.00000 2.060 1.000     10.732  23.000
  552 2.060 1.760  2.360 1.000 1.00000 2.060 1.000     10.061  23.000
  553 2.020 1.724  2.316 1.000 1.00000 2.030 1.000      0.214  23.000
  554 2.030 1.733  2.327 1.000 1.00000 2.030 1.000      2.290  23.000
  555 2.060 1.760  2.360 1.000 1.00000 2.060 1.000      7.667  23.000
  556 2.030 1.733  2.327 1.000 1.00000 2.030 1.000      2.175  23.000
  557 2.060 1.760  2.360 1.000 1.00000 2.060 1.000      8.011  23.000
  558 2.030 1.733  2.327 1.000 1.00000 2.030 1.000      0.560  23.000
  559 2.020 1.724  2.316 1.000 1.00000 2.020 1.000      0.686  23.000
  560 2.020 1.724  2.316 1.000 1.00000 2.020 1.000      0.686  23.000
  561 2.030 1.733  2.327 1.000 1.00000 2.030 1.000      0.935  23.000
  562 2.060 1.760  2.360 1.000 1.00000 2.060 1.000      4.688  23.000
  563 2.050 1.751  2.349 1.000 1.00000 2.060 1.000      5.517  23.000
  564 2.020 1.724  2.316 1.000 1.00000 2.030 1.000      0.233  23.000
  565 2.020 1.724  2.316 1.000 1.00000 2.020 1.000      0.439  23.000
  566 2.060 1.760  2.360 1.000 1.00000 2.060 1.000      5.003  23.000
  567 2.060 1.760  2.360 1.000 1.00000 2.060 1.000      5.474  23.000
  568 2.060 1.760  2.360 1.000 1.00000 2.060 1.000      4.911  23.000
  569 2.060 1.760  2.360 1.000 1.00000 2.060 1.000      9.092  23.000
  570 2.060 1.760  2.360 1.000 1.00000 2.060 1.000      5.752  23.000
  571 2.020 1.724  2.316 1.000 1.00000 2.020 1.000      0.296  23.000
  572 2.030 1.733  2.327 1.000 1.00000 2.030 1.000      1.425  23.000
  573 2.060 1.760  2.360 1.000 1.00000 2.060 1.000     14.361  23.000
  574 2.020 1.724  2.316 1.000 1.00000 2.020 1.000      0.215  23.000
  575 2.040 1.742  2.338 1.000 1.00000 2.030 1.000      5.512  23.000
  576 2.060 1.760  2.360 1.000 1.00000 2.060 1.000      9.727  23.000
  577 2.060 1.760  2.360 1.000 1.00000 2.060 1.000      4.924  23.000
  578 2.020 1.724  2.316 1.000 1.00000 2.020 1.000      0.606  23.000
  579 2.060 1.760  2.360 1.000 1.00000 2.060 1.000      7.779  23.000
  580 2.060 1.760  2.360 1.000 1.00000 2.060 1.000      7.667  23.000
  581 2.060 1.760  2.360 1.000 1.00000 2.060 1.000     15.077  23.000
  582 2.030 1.733  2.327 1.000 1.00000 2.030 1.000      3.359  23.000
  583 2.020 1.724  2.316 1.000 1.00000 2.020 1.000      0.140  23.000
  584 2.060 1.760  2.360 1.000 1.00000 2.060 1.000      9.837  23.000
  585 2.020 1.724  2.316 1.000 1.00000 2.020 1.000      0.746  23.000
  586 2.020 1.724  2.316 1.000 1.00000 2.020 1.000      0.146  23.000
  587 2.030 1.733  2.327 1.000 1.00000 2.030 1.000      1.321  23.000
  588 2.030 1.733  2.327 1.000 1.00000 2.030 1.000      4.283  23.000
  589 2.060 1.760  2.360 1.000 1.00000 2.060 1.000      8.597  23.000
  590 2.030 1.733  2.327 1.000 1.00000 2.030 1.000      1.912  23.000
  591 2.030 1.733  2.327 1.000 1.00000 2.030 1.000      4.283  23.000
  592 2.060 1.760  2.360 1.000 1.00000 2.060 1.000      5.474  23.000
  593 2.060 1.760  2.360 1.000 1.00000 2.060 1.000      5.801  23.000
  594 2.050 1.751  2.349 1.000 1.00000 2.060 1.000      5.613  23.000
  595 2.060 1.760  2.360 1.000 1.00000 2.060 1.000      4.691  23.000
  596 2.060 1.760  2.360 1.000 1.00000 2.060 1.000     11.981  23.000
  597 2.060 1.760  2.360 1.000 1.00000 2.060 1.000      6.715  23.000
  598 2.020 1.724  2.316 1.000 1.00000 2.030 1.000      0.218  23.000
  599 2.060 1.760  2.360 1.000 1.00000 2.060 1.000      5.418  23.000
  600 2.060 1.760  2.360 1.000 1.00000 2.060 1.000      4.737  23.000
  601 2.060 1.760  2.360 1.000 1.00000 2.060 1.000      4.736  23.000
  602 2.060 1.760  2.360 1.000 1.00000 2.060 1.000      4.759  23.000
  603 2.020 1.724  2.316 1.000 1.00000 2.020 1.000      1.064  23.000
  604 2.030 1.733  2.327 1.000 1.00000 2.030 1.000      2.130  23.000
  605 2.040 1.742  2.338 1.000 1.00000 2.030 1.000      5.437  23.000
  606 2.020 1.724  2.316 1.000 1.00000 2.020 1.000      1.774  23.000
  607 2.060 1.760  2.360 1.000 1.00000 2.060 1.000      5.218  23.000
  608 2.030 1.733  2.327 1.000 1.00000 2.030 1.000      1.443  23.000
  609 2.020 1.724  2.316 1.000 1.00000 2.020 1.000      0.351  23.000
  610 2.060 1.760  2.360 1.000 1.00000 2.060 1.000      5.088  23.000
  611 2.030 1.733  2.327 1.000 1.00000 2.030 1.000      1.610  23.000
  612 2.030 1.733  2.327 1.000 1.00000 2.030 1.000      1.649  23.000
  613 2.020 1.724  2.316 1.000 1.00000 2.030 1.000      0.227  23.000
  614 2.060 1.760  2.360 1.000 1.00000 2.060 1.000      5.889  23.000
  615 2.020 1.724  2.316 1.000 1.00000 2.020 1.000      1.256  23.000
  616 2.030 1.733  2.327 1.000 1.00000 2.030 1.000      0.855  23.000
  617 2.060 1.760  2.360 1.000 1.00000 2.060 1.000      4.765  23.000
  618 2.030 1.733  2.327 1.000 1.00000 2.030 1.000      1.891  23.000
  619 2.060 1.760  2.360 1.000 1.00000 2.060 1.000      5.253  23.000
  620 2.060 1.760  2.360 1.000 1.00000 2.060 1.000      4.689  23.000
  621 2.030 1.733  2.327 1.000 1.00000 2.030 1.000      0.446  23.000
  622 2.030 1.733  2.327 1.000 1.00000 2.030 1.000      1.372  23.000
  623 2.060 1.760  2.360 1.000 1.00000 2.060 1.000      5.518  23.000
  624 2.060 1.760  2.360 1.000 1.00000 2.060 1.000      4.797  23.000
  625 2.060 1.760  2.360 1.000 1.00000 2.060 1.000      5.547  23.000
  626 2.020 1.724  2.316 1.000 1.00000 2.020 1.000      0.138  23.000
  627 2.060 1.760  2.360 1.000 1.00000 2.060 1.000      5.786  23.000
  628 2.030 1.733  2.327 1.000 1.00000 2.030 1.000      3.388  23.000
  629 2.060 1.760  2.360 1.000 1.00000 2.060 1.000      9.475  23.000
  630 2.070 1.769  2.371 1.000 1.00000 2.070 1.000     19.461  23.000
  631 2.030 1.733  2.327 1.000 1.00000 2.030 1.000      1.425  23.000
  632 2.060 1.760  2.360 1.000 1.00000 2.060 1.000      4.740  23.000
  633 2.040 1.742  2.338 1.000 1.00000 2.030 1.000      5.512  23.000
  634 2.060 1.760  2.360 1.000 1.00000 2.060 1.000      5.925  23.000
  635 2.010 1.715  2.305 1.000 1.00000 2.010 1.000      3.467  23.000
  636 2.070 1.769  2.371 1.000 1.00000 2.070 1.000     18.273  23.000
  637 2.030 1.733  2.327 1.000 1.00000 2.030 1.000      1.688  23.000
  638 2.060 1.760  2.360 1.000 1.00000 2.060 1.000     14.059  23.000
  639 2.030 1.733  2.327 1.000 1.00000 2.030 1.000      4.382  23.000
  640 2.060 1.760  2.360 1.000 1.00000 2.060 1.000      9.058  23.000
  641 2.060 1.760  2.360 1.000 1.00000 2.060 1.000      5.433  23.000
  642 2.030 1.733  2.327 1.000 1.00000 2.030 1.000      2.506  23.000
  643 2.020 1.724  2.316 1.000 1.00000 2.020 1.000      0.137  23.000
  644 2.020 1.724  2.316 1.000 1.00000 2.020 1.000      0.160  23.000
  645 2.020 1.724  2.316 1.000 1.00000 2.020 1.000      0.177  23.000
  646 2.030 1.733  2.327 1.000 1.00000 2.030 1.000      1.408  23.000
  647 2.030 1.733  2.327 1.000 1.00000 2.030 1.000      1.050  23.000
  648 2.020 1.724  2.316 1.000 1.00000 2.020 1.000      0.153  23.000
  649 2.060 1.760  2.360 1.000 1.00000 2.060 1.000      5.353  23.000
  650 2.030 1.733  2.327 1.000 1.00000 2.030 1.000      1.080  23.000
  651 2.020 1.724  2.316 1.000 1.00000 2.020 1.000      0.494  23.000
  652 2.020 1.724  2.316 1.000 1.00000 2.020 1.000      1.856  23.000
  653 2.030 1.733  2.327 1.000 1.00000 2.030 1.000      1.808  23.000
  654 2.030 1.733  2.327 1.000 1.00000 2.030 1.000      0.842  23.000
  655 2.160 1.850  2.470 1.000 1.00000 2.160 1.000     35.316  23.000
  656 2.020 1.724  2.316 1.000 1.00000 2.020 1.000      0.158  23.000
  657 2.020 1.724  2.316 1.000 1.00000 2.020 1.000      0.145  23.000
  658 2.030 1.733  2.327 1.000 1.00000 2.030 1.000      5.180  23.000
  659 2.060 1.760  2.360 1.000 1.00000 2.060 1.000      4.901  23.000
  660 2.030 1.733  2.327 1.000 1.00000 2.030 1.000      2.605  23.000
  661 2.020 1.724  2.316 1.000 1.00000 2.030 1.000      0.216  23.000
  662 2.030 1.733  2.327 1.000 1.00000 2.030 1.000      3.837  23.000
  663 2.070 1.769  2.371 1.000 1.00000 2.070 1.000     18.439  23.000
  664 2.030 1.733  2.327 1.000 1.00000 2.030 1.000      0.249  23.000
  665 2.030 1.733  2.327 1.000 1.00000 2.030 1.000      1.270  23.000
  666 2.060 1.760  2.360 1.000 1.00000 2.060 1.000      4.717  23.000
  667 2.060 1.760  2.360 1.000 1.00000 2.060 1.000      5.218  23.000
  668 2.060 1.760  2.360 1.000 1.00000 2.060 1.000      5.151  23.000
  669 2.060 1.760  2.360 1.000 1.00000 2.060 1.000      5.129  23.000
  670 2.030 1.733  2.327 1.000 1.00000 2.030 1.000      3.446  23.000
  671 2.060 1.760  2.360 1.000 1.00000 2.060 1.000      5.025  23.000
  672 2.060 1.760  2.360 1.000 1.00000 2.060 1.000     14.361  23.000
  673 2.160 1.850  2.470 1.000 1.00000 2.160 1.000     33.959  23.000
  674 2.020 1.724  2.316 1.000 1.00000 2.020 1.000      0.139  23.000
  675 2.030 1.733  2.327 1.000 1.00000 2.030 1.000      1.649  23.000
  676 2.030 1.733  2.327 1.000 1.00000 2.030 1.000      3.868  23.000
  677 2.020 1.724  2.316 1.000 1.00000 2.020 1.000      1.815  23.000
  678 2.020 1.724  2.316 1.000 1.00000 2.020 1.000      0.137  23.000
  679 2.060 1.760  2.360 1.000 1.00000 2.060 1.000      5.300  23.000
  680 2.060 1.760  2.360 1.000 1.00000 2.060 1.000      5.151  23.000
  681 2.020 1.724  2.316 1.000 1.00000 2.020 1.000      0.163  23.000
  682 2.160 1.850  2.470 1.000 1.00000 2.160 1.000     33.376  23.000
  683 2.020 1.724  2.316 1.000 1.00000 2.020 1.000      0.373  23.000
  684 2.040 1.742  2.338 1.000 1.00000 2.030 1.000      5.326  23.000
  685 2.060 1.760  2.360 1.000 1.00000 2.060 1.000      5.562  23.000
  686 2.060 1.760  2.360 1.000 1.00000 2.060 1.000     13.950  23.000
  687 2.030 1.733  2.327 1.000 1.00000 2.030 1.000      1.355  23.000
  688 2.030 1.733  2.327 1.000 1.00000 2.030 1.000      0.921  23.000
  689 2.060 1.760  2.360 1.000 1.00000 2.060 1.000      8.924  23.000
  690 2.020 1.724  2.316 1.000 1.00000 2.020 1.000      0.849  23.000
  691 2.060 1.760  2.360 1.000 1.00000 2.060 1.000      6.269  23.000
  692 2.030 1.733  2.327 1.000 1.00000 2.030 1.000      2.630  23.000
  693 2.160 1.850  2.470 1.000 1.00000 2.160 1.000     33.517  23.000
  694 2.160 1.850  2.470 1.000 1.00000 2.160 1.000     39.583  23.000
  695 2.020 1.724  2.316 1.000 1.00000 2.020 1.000      0.152  23.000
  696 2.060 1.760  2.360 1.000 1.00000 2.060 1.000      5.012  23.000
  697 2.030 1.733  2.327 1.000 1.00000 2.030 1.000      0.674  23.000
  698 2.060 1.760  2.360 1.000 1.00000 2.060 1.000      6.054  23.000
  699 2.160 1.850  2.470 1.000 1.00000 2.160 1.000     46.132  23.000
  700 2.020 1.724  2.316 1.000 1.00000 2.020 1.000      0.198  23.000
  701 2.060 1.760  2.360 1.000 1.00000 2.060 1.000      6.189  23.000
  702 2.070 1.769  2.371 1.000 1.00000 2.070 1.000     23.270  23.000
  703 2.060 1.760  2.360 1.000 1.00000 2.060 1.000      4.943  23.000
  704 2.020 1.724  2.316 1.000 1.00000 2.020 1.000      0.284  23.000
  705 2.060 1.760  2.360 1.000 1.00000 2.060 1.000      4.737  23.000
  706 2.030 1.733  2.327 1.000 1.00000 2.030 1.000      4.250  23.000
  707 2.030 1.733  2.327 1.000 1.00000 2.030 1.000      3.023  23.000
  708 2.060 1.760  2.360 1.000 1.00000 2.060 1.000      9.511  23.000
  709 2.030 1.733  2.327 1.000 1.00000 2.030 1.000      0.921  23.000
  710 2.030 1.733  2.327 1.000 1.00000 2.030 1.000      2.086  23.000
  711 2.060 1.760  2.360 1.000 1.00000 2.060 1.000      7.583  23.000
  712 2.060 1.760  2.360 1.000 1.00000 2.060 1.000      4.743  23.000
  713 2.020 1.724  2.316 1.000 1.00000 2.020 1.000      0.220  23.000
  714 2.030 1.733  2.327 1.000 1.00000 2.030 1.000      1.443  23.000
  715 2.030 1.733  2.327 1.000 1.00000 2.030 1.000      3.051  23.000
  716 2.020 1.724  2.316 1.000 1.00000 2.020 1.000      0.373  23.000
  717 2.020 1.724  2.316 1.000 1.00000 2.020 1.000      0.932  23.000
  718 2.060 1.760  2.360 1.000 1.00000 2.060 1.000      5.265  23.000
  719 2.030 1.733  2.327 1.000 1.00000 2.030 1.000      5.036  23.000
  720 2.060 1.760  2.360 1.000 1.00000 2.060 1.000      4.865  23.000
  721 2.020 1.724  2.316 1.000 1.00000 2.020 1.000      0.513  23.000
  722 2.060 1.760  2.360 1.000 1.00000 2.060 1.000      4.931  23.000
  723 2.030 1.733  2.327 1.000 1.00000 2.030 1.000      2.130  23.000
  724 2.060 1.760  2.360 1.000 1.00000 2.060 1.000      4.856  23.000
  725 2.030 1.733  2.327 1.000 1.00000 2.030 1.000      4.686  23.000
  726 2.030 1.733  2.327 1.000 1.00000 2.030 1.000      2.337  23.000
  727 2.030 1.733  2.327 1.000 1.00000 2.030 1.000      0.318  23.000
  728 2.030 1.733  2.327 1.000 1.00000 2.030 1.000      0.696  23.000
  729 2.030 1.733  2.327 1.000 1.00000 2.030 1.000      2.482  23.000
  730 2.020 1.724  2.316 1.000 1.00000 2.020 1.000      0.278  23.000
  731 2.010 1.715  2.305 1.000 1.00000 2.010 1.000      2.626  23.000
  732 2.030 1.733  2.327 1.000 1.00000 2.030 1.000      0.312  23.000
  733 2.030 1.733  2.327 1.000 1.00000 2.030 1.000      0.719  23.000
  734 2.030 1.733  2.327 1.000 1.00000 2.030 1.000      4.894  23.000
  735 2.070 1.769  2.371 1.000 1.00000 2.070 1.000     24.421  23.000
  736 2.030 1.733  2.327 1.000 1.00000 2.030 1.000      3.475  23.000
  737 2.040 1.742  2.338 1.000 1.00000 2.030 1.000      5.512  23.000
  738 2.020 1.724  2.316 1.000 1.00000 2.020 1.000      0.139  23.000
  739 2.060 1.760  2.360 1.000 1.00000 2.060 1.000      4.732  23.000
  740 2.020 1.724  2.316 1.000 1.00000 2.020 1.000      1.142  23.000
  741 2.030 1.733  2.327 1.000 1.00000 2.030 1.000      0.359  23.000
  742 2.030 1.733  2.327 1.000 1.00000 2.030 1.000      1.572  23.000
  743 2.060 1.760  2.360 1.000 1.00000 2.060 1.000      4.689  23.000
  744 2.060 1.760  2.360 1.000 1.00000 2.060 1.000      4.817  23.000
  745 2.060 1.760  2.360 1.000 1.00000 2.060 1.000      4.696  23.000
  746 2.030 1.733  2.327 1.000 1.00000 2.030 1.000      0.881  23.000
  747 2.030 1.733  2.327 1.000 1.00000 2.030 1.000      4.349  23.000
  748 2.020 1.724  2.316 1.000 1.00000 2.020 1.000      0.849  23.000
  749 2.030 1.733  2.327 1.000 1.00000 2.030 1.000      0.297  23.000
  750 2.040 1.742  2.338 1.000 1.00000 2.030 1.000      5.550  23.000
  751 2.030 1.733  2.327 1.000 1.00000 2.030 1.000      1.390  23.000
  752 2.060 1.760  2.360 1.000 1.00000 2.060 1.000      5.549  23.000
  753 2.060 1.760  2.360 1.000 1.00000 2.060 1.000      5.140  23.000
  754 2.060 1.760  2.360 1.000 1.00000 2.060 1.000      4.792  23.000
  755 2.060 1.760  2.360 1.000 1.00000 2.060 1.000      7.501  23.000
  756 2.030 1.733  2.327 1.000 1.00000 2.030 1.000      4.651  23.000
  757 2.060 1.760  2.360 1.000 1.00000 2.060 1.000      5.140  23.000
  758 2.060 1.760  2.360 1.000 1.00000 2.060 1.000      4.767  23.000
  759 2.060 1.760  2.360 1.000 1.00000 2.060 1.000      5.265  23.000
  760 2.020 1.724  2.316 1.000 1.00000 2.020 1.000      0.139  23.000
  761 2.030 1.733  2.327 1.000 1.00000 2.030 1.000      0.935  23.000
  762 2.030 1.733  2.327 1.000 1.00000 2.030 1.000      2.656  23.000
  763 2.060 1.760  2.360 1.000 1.00000 2.060 1.000      4.713  23.000
  764 2.020 1.724  2.316 1.000 1.00000 2.020 1.000      0.191  23.000
  765 2.050 1.751  2.349 1.000 1.00000 2.060 1.000      5.546  23.000
  766 2.030 1.733  2.327 1.000 1.00000 2.030 1.000      0.253  23.000
  767 2.060 1.760  2.360 1.000 1.00000 2.060 1.000      5.065  23.000
  768 2.060 1.760  2.360 1.000 1.00000 2.060 1.000      4.763  23.000
  769 2.060 1.760  2.360 1.000 1.00000 2.060 1.000      4.943  23.000
  770 2.050 1.751  2.349 1.000 1.00000 2.060 1.000      5.546  23.000
  771 2.030 1.733  2.327 1.000 1.00000 2.030 1.000      1.829  23.000
  772 2.020 1.724  2.316 1.000 1.00000 2.010 1.000      2.156  23.000
  773 2.060 1.760  2.360 1.000 1.00000 2.060 1.000      4.782  23.000
  774 2.060 1.760  2.360 1.000 1.00000 2.060 1.000      4.708  23.000
  775 2.030 1.733  2.327 1.000 1.00000 2.030 1.000      4.651  23.000
  776 2.030 1.733  2.327 1.000 1.00000 2.030 1.000      2.337  23.000
  777 2.060 1.760  2.360 1.000 1.00000 2.060 1.000     13.459  23.000
  778 2.020 1.724  2.316 1.000 1.00000 2.020 1.000      0.504  23.000
  779 2.060 1.760  2.360 1.000 1.00000 2.060 1.000     12.248  23.000
  780 2.030 1.733  2.327 1.000 1.00000 2.030 1.000      0.282  23.000
  781 2.030 1.733  2.327 1.000 1.00000 2.030 1.000      3.078  23.000
  782 2.060 1.760  2.360 1.000 1.00000 2.060 1.000     10.301  23.000
  783 2.060 1.760  2.360 1.000 1.00000 2.060 1.000      5.391  23.000
  784 2.060 1.760  2.360 1.000 1.00000 2.060 1.000      4.808  23.000
  785 2.030 1.733  2.327 1.000 1.00000 2.030 1.000      5.072  23.000
  786 2.020 1.724  2.316 1.000 1.00000 2.020 1.000      0.139  23.000
  787 2.070 1.769  2.371 1.000 1.00000 2.070 1.000     24.628  23.000
  788 2.060 1.760  2.360 1.000 1.00000 2.060 1.000      5.349  23.000
  789 2.030 1.733  2.327 1.000 1.00000 2.030 1.000      1.425  23.000
  790 2.060 1.760  2.360 1.000 1.00000 2.060 1.000      4.994  23.000
  791 2.060 1.760  2.360 1.000 1.00000 2.060 1.000      6.655  23.000
  792 2.030 1.733  2.327 1.000 1.00000 2.030 1.000      2.385  23.000
  793 2.060 1.760  2.360 1.000 1.00000 2.060 1.000      4.787  23.000
  794 2.030 1.733  2.327 1.000 1.00000 2.030 1.000      1.688  23.000
  795 2.060 1.760  2.360 1.000 1.00000 2.060 1.000      4.692  23.000
  796 2.070 1.769  2.371 1.000 1.00000 2.070 1.000     23.194  23.000
  797 2.060 1.760  2.360 1.000 1.00000 2.060 1.000      4.956  23.000
  798 2.030 1.733  2.327 1.000 1.00000 2.030 1.000      2.086  23.000
  799 2.020 1.724  2.316 1.000 1.00000 2.020 1.000      0.137  23.000
  800 2.060 1.760  2.360 1.000 1.00000 2.060 1.000      4.712  23.000
