## File LOS/SB2_B2004a_1.9z_Mags_100.bpz  Fri Aug 12 23:36:46 2016
##
##Parameters used to run BPZ:
##
##AB_DIR=/home/lidenscheng/bpz-1.99.3//AB/
##ADD_CONTINUOUS_PROB=None
##ADD_SPEC_PROB=None
##CHECK=LOS/SB2_B2004a_1.9z_Mags_100.flux_comparison
##COLOR=no
##COLUMNS=losNoErrors.columns
##CONVOLVE_P=yes
##DELTA_M_0=0.0
##DZ=0.01
##EXCLUDE=none
##FC=None
##FILTER_DIR=/home/lidenscheng/MK_DirectSim/filters/
##GET_Z=yes
##INPUT=LOS/SB2_B2004a_1.9z_Mags_100.txt
##INTERACTIVE=yes
##INTERP=0
##MADAU=no
##MAG=yes
##MEAN_IGM=yes
##MERGE_PEAKS=no
##MIN_MAGERR=0.001
##MIN_RMS=0.05
##NEW_AB=no
##NMAX=None
##NTYPES=None
##N_PEAKS=1
##ODDS=0.95
##ONLY_TYPE=no
##OUTPUT=LOS/SB2_B2004a_1.9z_Mags_100.bpz
##PHOTO_ERRORS=no
##PLOTS=no
##PRIOR=none
##PROBS=no
##PROBS2=no
##PROBS_LITE=LOS/SB2_B2004a_1.9z_Mags_100.probs
##P_MIN=0.01
##SED_DIR=/home/lidenscheng/MK_DirectSim/SEDs/
##SPECTRA=SB2.list
##VERBOSE=yes
##ZC=None
##ZMAX=10.0
##ZMIN=0.01
##ZP_OFFSETS=0.0
##Z_THR=0
##
##Column information
##
# 1 ID
# 2 Z_B
# 3 Z_B_MIN
# 4 Z_B_MAX
# 5 T_B
# 6 ODDS    
# 7 Z_ML
# 8 T_ML
# 9 CHI-SQUARED
# 10 M_0
##
    1 1.930 1.643  2.217 1.000 1.00000 1.930 1.000      2.868  23.000
    2 1.920 1.634  2.206 1.000 1.00000 1.920 1.000      0.901  23.000
    3 1.920 1.634  2.206 1.000 1.00000 1.920 1.000      0.393  23.000
    4 1.920 1.634  2.206 1.000 1.00000 1.920 1.000      0.716  23.000
    5 1.920 1.634  2.206 1.000 1.00000 1.920 1.000      0.647  23.000
    6 1.960 1.670  2.250 1.000 1.00000 1.960 1.000     31.262  23.000
    7 1.930 1.643  2.217 1.000 1.00000 1.930 1.000      4.478  23.000
    8 1.930 1.643  2.217 1.000 1.00000 1.930 1.000      3.039  23.000
    9 1.920 1.634  2.206 1.000 1.00000 1.920 1.000      0.530  23.000
   10 1.920 1.634  2.206 1.000 1.00000 1.920 1.000      0.317  23.000
   11 1.920 1.634  2.206 1.000 1.00000 1.920 1.000      0.604  23.000
   12 1.960 1.670  2.250 1.000 1.00000 1.960 1.000      8.444  23.000
   13 1.960 1.670  2.250 1.000 1.00000 1.960 1.000     10.475  23.000
   14 1.920 1.634  2.206 1.000 1.00000 1.920 1.000      1.300  23.000
   15 1.920 1.634  2.206 1.000 1.00000 1.920 1.000      2.047  23.000
   16 1.920 1.634  2.206 1.000 1.00000 1.920 1.000      0.305  23.000
   17 1.960 1.670  2.250 1.000 1.00000 1.960 1.000     51.150  23.000
   18 1.920 1.634  2.206 1.000 1.00000 1.920 1.000      0.325  23.000
   19 1.960 1.670  2.250 1.000 1.00000 1.960 1.000      7.950  23.000
   20 1.920 1.634  2.206 1.000 1.00000 1.920 1.000      0.325  23.000
   21 1.920 1.634  2.206 1.000 1.00000 1.920 1.000      1.175  23.000
   22 1.960 1.670  2.250 1.000 1.00000 1.960 1.000     12.511  23.000
   23 1.920 1.634  2.206 1.000 1.00000 1.920 1.000      0.308  23.000
   24 1.960 1.670  2.250 1.000 1.00000 1.960 1.000     17.035  23.000
   25 1.960 1.670  2.250 1.000 1.00000 1.960 1.000     14.911  23.000
   26 1.940 1.652  2.228 1.000 1.00000 1.930 1.000      7.352  23.000
   27 1.920 1.634  2.206 1.000 1.00000 1.920 1.000      0.442  23.000
   28 1.960 1.670  2.250 1.000 1.00000 1.960 1.000      7.506  23.000
   29 1.920 1.634  2.206 1.000 1.00000 1.920 1.000      0.480  23.000
   30 1.930 1.643  2.217 1.000 1.00000 1.930 1.000      2.797  23.000
   31 1.930 1.643  2.217 1.000 1.00000 1.930 1.000      6.537  23.000
   32 1.930 1.643  2.217 1.000 1.00000 1.930 1.000      3.089  23.000
   33 1.920 1.634  2.206 1.000 1.00000 1.920 1.000      2.112  23.000
   34 1.930 1.643  2.217 1.000 1.00000 1.930 1.000      3.216  23.000
   35 1.920 1.634  2.206 1.000 1.00000 1.920 1.000      0.729  23.000
   36 1.920 1.634  2.206 1.000 1.00000 1.920 1.000      0.965  23.000
   37 1.960 1.670  2.250 1.000 1.00000 1.960 1.000     18.635  23.000
   38 1.960 1.670  2.250 1.000 1.00000 1.960 1.000     18.197  23.000
   39 1.960 1.670  2.250 1.000 1.00000 1.960 1.000     12.970  23.000
   40 1.960 1.670  2.250 1.000 1.00000 1.960 1.000      8.126  23.000
   41 1.930 1.643  2.217 1.000 1.00000 1.930 1.000      3.758  23.000
   42 1.960 1.670  2.250 1.000 1.00000 1.960 1.000     17.035  23.000
   43 1.920 1.634  2.206 1.000 1.00000 1.920 1.000      0.487  23.000
   44 1.930 1.643  2.217 1.000 1.00000 1.930 1.000      2.374  23.000
   45 1.930 1.643  2.217 1.000 1.00000 1.930 1.000      2.750  23.000
   46 1.920 1.634  2.206 1.000 1.00000 1.920 1.000      0.562  23.000
   47 1.920 1.634  2.206 1.000 1.00000 1.920 1.000      0.522  23.000
   48 1.930 1.643  2.217 1.000 1.00000 1.930 1.000      6.264  23.000
   49 1.920 1.634  2.206 1.000 1.00000 1.920 1.000      0.695  23.000
   50 1.920 1.634  2.206 1.000 1.00000 1.920 1.000      0.307  23.000
   51 1.960 1.670  2.250 1.000 1.00000 1.960 1.000      7.895  23.000
   52 1.960 1.670  2.250 1.000 1.00000 1.960 1.000     10.806  23.000
   53 1.920 1.634  2.206 1.000 1.00000 1.920 1.000      1.861  23.000
   54 1.960 1.670  2.250 1.000 1.00000 1.960 1.000      8.592  23.000
   55 1.960 1.670  2.250 1.000 1.00000 1.960 1.000      7.732  23.000
   56 1.920 1.634  2.206 1.000 1.00000 1.920 1.000      1.316  23.000
   57 1.960 1.670  2.250 1.000 1.00000 1.960 1.000      7.552  23.000
   58 1.920 1.634  2.206 1.000 1.00000 1.920 1.000      1.592  23.000
   59 1.930 1.643  2.217 1.000 1.00000 1.930 1.000      6.656  23.000
   60 1.960 1.670  2.250 1.000 1.00000 1.960 1.000      8.809  23.000
   61 1.960 1.670  2.250 1.000 1.00000 1.960 1.000      7.552  23.000
   62 1.960 1.670  2.250 1.000 1.00000 1.960 1.000      8.592  23.000
   63 1.920 1.634  2.206 1.000 1.00000 1.920 1.000      0.389  23.000
   64 1.920 1.634  2.206 1.000 1.00000 1.920 1.000      0.305  23.000
   65 1.930 1.643  2.217 1.000 1.00000 1.930 1.000      4.867  23.000
   66 1.930 1.643  2.217 1.000 1.00000 1.930 1.000      3.931  23.000
   67 1.920 1.634  2.206 1.000 1.00000 1.920 1.000      0.538  23.000
   68 1.920 1.634  2.206 1.000 1.00000 1.920 1.000      0.479  23.000
   69 1.930 1.643  2.217 1.000 1.00000 1.930 1.000      3.114  23.000
   70 1.930 1.643  2.217 1.000 1.00000 1.930 1.000      6.036  23.000
   71 1.930 1.643  2.217 1.000 1.00000 1.930 1.000      3.089  23.000
   72 1.930 1.643  2.217 1.000 1.00000 1.930 1.000      4.384  23.000
   73 1.920 1.634  2.206 1.000 1.00000 1.920 1.000      0.817  23.000
   74 1.920 1.634  2.206 1.000 1.00000 1.920 1.000      0.408  23.000
   75 1.960 1.670  2.250 1.000 1.00000 1.960 1.000      8.955  23.000
   76 1.920 1.634  2.206 1.000 1.00000 1.920 1.000      2.090  23.000
   77 1.930 1.643  2.217 1.000 1.00000 1.930 1.000      5.887  23.000
   78 1.920 1.634  2.206 1.000 1.00000 1.920 1.000      0.761  23.000
   79 1.920 1.634  2.206 1.000 1.00000 1.920 1.000      0.685  23.000
   80 1.930 1.643  2.217 1.000 1.00000 1.930 1.000      6.419  23.000
   81 1.930 1.643  2.217 1.000 1.00000 1.930 1.000      3.873  23.000
   82 1.920 1.634  2.206 1.000 1.00000 1.920 1.000      0.363  23.000
   83 1.930 1.643  2.217 1.000 1.00000 1.930 1.000      2.438  23.000
   84 1.920 1.634  2.206 1.000 1.00000 1.920 1.000      0.384  23.000
   85 1.930 1.643  2.217 1.000 1.00000 1.930 1.000      2.353  23.000
   86 1.920 1.634  2.206 1.000 1.00000 1.920 1.000      0.325  23.000
   87 1.920 1.634  2.206 1.000 1.00000 1.920 1.000      0.631  23.000
   88 1.960 1.670  2.250 1.000 1.00000 1.960 1.000     24.385  23.000
   89 1.920 1.634  2.206 1.000 1.00000 1.920 1.000      0.359  23.000
   90 1.930 1.643  2.217 1.000 1.00000 1.930 1.000      4.230  23.000
   91 1.930 1.643  2.217 1.000 1.00000 1.930 1.000      5.594  23.000
   92 1.960 1.670  2.250 1.000 1.00000 1.960 1.000      7.843  23.000
   93 1.920 1.634  2.206 1.000 1.00000 1.920 1.000      1.073  23.000
   94 1.930 1.643  2.217 1.000 1.00000 1.930 1.000      7.101  23.000
   95 1.930 1.643  2.217 1.000 1.00000 1.930 1.000      2.438  23.000
   96 1.960 1.670  2.250 1.000 1.00000 1.960 1.000     53.288  23.000
   97 1.920 1.634  2.206 1.000 1.00000 1.920 1.000      0.669  23.000
   98 1.960 1.670  2.250 1.000 1.00000 1.960 1.000      7.744  23.000
   99 1.960 1.670  2.250 1.000 1.00000 1.960 1.000     11.348  23.000
  100 1.920 1.634  2.206 1.000 1.00000 1.920 1.000      1.861  23.000
