## File LOS/SB2_B2004a_2.0z_Mags_100.bpz  Fri Aug 12 23:36:47 2016
##
##Parameters used to run BPZ:
##
##AB_DIR=/home/lidenscheng/bpz-1.99.3//AB/
##ADD_CONTINUOUS_PROB=None
##ADD_SPEC_PROB=None
##CHECK=LOS/SB2_B2004a_2.0z_Mags_100.flux_comparison
##COLOR=no
##COLUMNS=losNoErrors.columns
##CONVOLVE_P=yes
##DELTA_M_0=0.0
##DZ=0.01
##EXCLUDE=none
##FC=None
##FILTER_DIR=/home/lidenscheng/MK_DirectSim/filters/
##GET_Z=yes
##INPUT=LOS/SB2_B2004a_2.0z_Mags_100.txt
##INTERACTIVE=yes
##INTERP=0
##MADAU=no
##MAG=yes
##MEAN_IGM=yes
##MERGE_PEAKS=no
##MIN_MAGERR=0.001
##MIN_RMS=0.05
##NEW_AB=no
##NMAX=None
##NTYPES=None
##N_PEAKS=1
##ODDS=0.95
##ONLY_TYPE=no
##OUTPUT=LOS/SB2_B2004a_2.0z_Mags_100.bpz
##PHOTO_ERRORS=no
##PLOTS=no
##PRIOR=none
##PROBS=no
##PROBS2=no
##PROBS_LITE=LOS/SB2_B2004a_2.0z_Mags_100.probs
##P_MIN=0.01
##SED_DIR=/home/lidenscheng/MK_DirectSim/SEDs/
##SPECTRA=SB2.list
##VERBOSE=yes
##ZC=None
##ZMAX=10.0
##ZMIN=0.01
##ZP_OFFSETS=0.0
##Z_THR=0
##
##Column information
##
# 1 ID
# 2 Z_B
# 3 Z_B_MIN
# 4 Z_B_MAX
# 5 T_B
# 6 ODDS    
# 7 Z_ML
# 8 T_ML
# 9 CHI-SQUARED
# 10 M_0
##
    1 2.040 1.742  2.338 1.000 1.00000 2.030 1.000      5.326  23.000
    2 2.030 1.733  2.327 1.000 1.00000 2.030 1.000      3.189  23.000
    3 2.020 1.724  2.316 1.000 1.00000 2.020 1.000      0.150  23.000
    4 2.160 1.850  2.470 1.000 1.00000 2.160 1.000     33.655  23.000
    5 2.060 1.760  2.360 1.000 1.00000 2.060 1.000      7.474  23.000
    6 2.060 1.760  2.360 1.000 1.00000 2.060 1.000      7.237  23.000
    7 2.060 1.760  2.360 1.000 1.00000 2.060 1.000     13.459  23.000
    8 2.060 1.760  2.360 1.000 1.00000 2.060 1.000      5.129  23.000
    9 2.060 1.760  2.360 1.000 1.00000 2.060 1.000      5.460  23.000
   10 2.020 1.724  2.316 1.000 1.00000 2.020 1.000      0.138  23.000
   11 2.060 1.760  2.360 1.000 1.00000 2.060 1.000      9.127  23.000
   12 2.030 1.733  2.327 1.000 1.00000 2.030 1.000      3.161  23.000
   13 2.030 1.733  2.327 1.000 1.00000 2.030 1.000      0.816  23.000
   14 2.060 1.760  2.360 1.000 1.00000 2.060 1.000      4.701  23.000
   15 2.030 1.733  2.327 1.000 1.00000 2.030 1.000      4.185  23.000
   16 2.020 1.724  2.316 1.000 1.00000 2.030 1.000      0.222  23.000
   17 2.060 1.760  2.360 1.000 1.00000 2.060 1.000      4.723  23.000
   18 2.060 1.760  2.360 1.000 1.00000 2.060 1.000      4.863  23.000
   19 2.030 1.733  2.327 1.000 1.00000 2.030 1.000      4.482  23.000
   20 2.060 1.760  2.360 1.000 1.00000 2.060 1.000     10.573  23.000
   21 2.070 1.769  2.371 1.000 1.00000 2.070 1.000     19.300  23.000
   22 2.060 1.760  2.360 1.000 1.00000 2.060 1.000      7.367  23.000
   23 2.070 1.769  2.371 1.000 1.00000 2.060 1.000     16.608  23.000
   24 2.030 1.733  2.327 1.000 1.00000 2.030 1.000      1.912  23.000
   25 2.160 1.850  2.470 1.000 1.00000 2.160 1.000     33.353  23.000
   26 2.070 1.769  2.371 1.000 1.00000 2.070 1.000     24.342  23.000
   27 2.030 1.733  2.327 1.000 1.00000 2.030 1.000      1.110  23.000
   28 2.060 1.760  2.360 1.000 1.00000 2.060 1.000      5.088  23.000
   29 2.030 1.733  2.327 1.000 1.00000 2.030 1.000      0.430  23.000
   30 2.030 1.733  2.327 1.000 1.00000 2.030 1.000      2.681  23.000
   31 2.060 1.760  2.360 1.000 1.00000 2.060 1.000      4.765  23.000
   32 2.030 1.733  2.327 1.000 1.00000 2.030 1.000      3.359  23.000
   33 2.060 1.760  2.360 1.000 1.00000 2.060 1.000      5.325  23.000
   34 2.020 1.724  2.316 1.000 1.00000 2.020 1.000      0.662  23.000
   35 2.060 1.760  2.360 1.000 1.00000 2.060 1.000      8.969  23.000
   36 2.020 1.724  2.316 1.000 1.00000 2.030 1.000      0.222  23.000
   37 2.020 1.724  2.316 1.000 1.00000 2.020 1.000      0.187  23.000
   38 2.020 1.724  2.316 1.000 1.00000 2.020 1.000      0.165  23.000
   39 2.030 1.733  2.327 1.000 1.00000 2.030 1.000      2.656  23.000
   40 2.060 1.760  2.360 1.000 1.00000 2.060 1.000      9.874  23.000
   41 2.030 1.733  2.327 1.000 1.00000 2.030 1.000      0.590  23.000
   42 2.060 1.760  2.360 1.000 1.00000 2.060 1.000      4.777  23.000
   43 2.060 1.760  2.360 1.000 1.00000 2.060 1.000     15.612  23.000
   44 2.030 1.733  2.327 1.000 1.00000 2.030 1.000      2.784  23.000
   45 2.060 1.760  2.360 1.000 1.00000 2.060 1.000     11.763  23.000
   46 2.060 1.760  2.360 1.000 1.00000 2.060 1.000      4.935  23.000
   47 2.030 1.733  2.327 1.000 1.00000 2.030 1.000      2.361  23.000
   48 2.060 1.760  2.360 1.000 1.00000 2.060 1.000      4.912  23.000
   49 2.030 1.733  2.327 1.000 1.00000 2.030 1.000      3.868  23.000
   50 2.030 1.733  2.327 1.000 1.00000 2.030 1.000      0.743  23.000
   51 2.040 1.742  2.338 1.000 1.00000 2.060 1.000      5.621  23.000
   52 2.060 1.760  2.360 1.000 1.00000 2.060 1.000      5.184  23.000
   53 2.030 1.733  2.327 1.000 1.00000 2.030 1.000      3.302  23.000
   54 2.030 1.733  2.327 1.000 1.00000 2.030 1.000      1.270  23.000
   55 2.060 1.760  2.360 1.000 1.00000 2.060 1.000      4.708  23.000
   56 2.030 1.733  2.327 1.000 1.00000 2.030 1.000      2.175  23.000
   57 2.060 1.760  2.360 1.000 1.00000 2.060 1.000      4.827  23.000
   58 2.020 1.724  2.316 1.000 1.00000 2.020 1.000      0.156  23.000
   59 2.020 1.724  2.316 1.000 1.00000 2.020 1.000      0.194  23.000
   60 2.030 1.733  2.327 1.000 1.00000 2.030 1.000      0.881  23.000
   61 2.070 1.769  2.371 1.000 1.00000 2.060 1.000     17.297  23.000
   62 2.060 1.760  2.360 1.000 1.00000 2.060 1.000      5.533  23.000
   63 2.060 1.760  2.360 1.000 1.00000 2.060 1.000     10.602  23.000
   64 2.030 1.733  2.327 1.000 1.00000 2.030 1.000      1.125  23.000
   65 2.060 1.760  2.360 1.000 1.00000 2.060 1.000      7.447  23.000
   66 2.060 1.760  2.360 1.000 1.00000 2.060 1.000     14.000  23.000
   67 2.060 1.760  2.360 1.000 1.00000 2.060 1.000      7.199  23.000
   68 2.030 1.733  2.327 1.000 1.00000 2.030 1.000      4.316  23.000
   69 2.030 1.733  2.327 1.000 1.00000 2.030 1.000      3.745  23.000
   70 2.060 1.760  2.360 1.000 1.00000 2.060 1.000      4.935  23.000
   71 2.060 1.760  2.360 1.000 1.00000 2.060 1.000      5.313  23.000
   72 2.020 1.724  2.316 1.000 1.00000 2.020 1.000      0.309  23.000
   73 2.020 1.724  2.316 1.000 1.00000 2.020 1.000      0.163  23.000
   74 2.060 1.760  2.360 1.000 1.00000 2.060 1.000      5.752  23.000
   75 2.060 1.760  2.360 1.000 1.00000 2.060 1.000      4.839  23.000
   76 2.060 1.760  2.360 1.000 1.00000 2.060 1.000      4.717  23.000
   77 2.020 1.724  2.316 1.000 1.00000 2.020 1.000      0.199  23.000
   78 2.060 1.760  2.360 1.000 1.00000 2.060 1.000      4.691  23.000
   79 2.060 1.760  2.360 1.000 1.00000 2.060 1.000      9.311  23.000
   80 2.060 1.760  2.360 1.000 1.00000 2.060 1.000      9.404  23.000
   81 2.020 1.724  2.316 1.000 1.00000 2.020 1.000      0.234  23.000
   82 2.030 1.733  2.327 1.000 1.00000 2.030 1.000      2.175  23.000
   83 2.060 1.760  2.360 1.000 1.00000 2.060 1.000      4.872  23.000
   84 2.060 1.760  2.360 1.000 1.00000 2.060 1.000      6.393  23.000
   85 2.030 1.733  2.327 1.000 1.00000 2.030 1.000      0.505  23.000
   86 2.060 1.760  2.360 1.000 1.00000 2.060 1.000      4.688  23.000
   87 2.030 1.733  2.327 1.000 1.00000 2.030 1.000      0.479  23.000
   88 2.070 1.769  2.371 1.000 1.00000 2.070 1.000     17.461  23.000
   89 2.030 1.733  2.327 1.000 1.00000 2.030 1.000      4.824  23.000
   90 2.030 1.733  2.327 1.000 1.00000 2.030 1.000      2.084  23.000
   91 2.030 1.733  2.327 1.000 1.00000 2.030 1.000      0.261  23.000
   92 2.030 1.733  2.327 1.000 1.00000 2.030 1.000      4.651  23.000
   93 2.030 1.733  2.327 1.000 1.00000 2.030 1.000      5.180  23.000
   94 2.070 1.769  2.371 1.000 1.00000 2.070 1.000     24.205  23.000
   95 2.030 1.733  2.327 1.000 1.00000 2.030 1.000      0.359  23.000
   96 2.060 1.760  2.360 1.000 1.00000 2.060 1.000      5.108  23.000
   97 2.020 1.724  2.316 1.000 1.00000 2.020 1.000      0.358  23.000
   98 2.020 1.724  2.316 1.000 1.00000 2.020 1.000      0.180  23.000
   99 2.050 1.751  2.349 1.000 1.00000 2.060 1.000      5.503  23.000
  100 2.030 1.733  2.327 1.000 1.00000 2.030 1.000      1.998  23.000
