## File LOS/SB2_B2004a_2.5z_Mags_100.bpz  Fri Aug 12 23:36:52 2016
##
##Parameters used to run BPZ:
##
##AB_DIR=/home/lidenscheng/bpz-1.99.3//AB/
##ADD_CONTINUOUS_PROB=None
##ADD_SPEC_PROB=None
##CHECK=LOS/SB2_B2004a_2.5z_Mags_100.flux_comparison
##COLOR=no
##COLUMNS=losNoErrors.columns
##CONVOLVE_P=yes
##DELTA_M_0=0.0
##DZ=0.01
##EXCLUDE=none
##FC=None
##FILTER_DIR=/home/lidenscheng/MK_DirectSim/filters/
##GET_Z=yes
##INPUT=LOS/SB2_B2004a_2.5z_Mags_100.txt
##INTERACTIVE=yes
##INTERP=0
##MADAU=no
##MAG=yes
##MEAN_IGM=yes
##MERGE_PEAKS=no
##MIN_MAGERR=0.001
##MIN_RMS=0.05
##NEW_AB=no
##NMAX=None
##NTYPES=None
##N_PEAKS=1
##ODDS=0.95
##ONLY_TYPE=no
##OUTPUT=LOS/SB2_B2004a_2.5z_Mags_100.bpz
##PHOTO_ERRORS=no
##PLOTS=no
##PRIOR=none
##PROBS=no
##PROBS2=no
##PROBS_LITE=LOS/SB2_B2004a_2.5z_Mags_100.probs
##P_MIN=0.01
##SED_DIR=/home/lidenscheng/MK_DirectSim/SEDs/
##SPECTRA=SB2.list
##VERBOSE=yes
##ZC=None
##ZMAX=10.0
##ZMIN=0.01
##ZP_OFFSETS=0.0
##Z_THR=0
##
##Column information
##
# 1 ID
# 2 Z_B
# 3 Z_B_MIN
# 4 Z_B_MAX
# 5 T_B
# 6 ODDS    
# 7 Z_ML
# 8 T_ML
# 9 CHI-SQUARED
# 10 M_0
##
    1 2.500 2.157  2.843 1.000 1.00000 2.510 1.000      0.909  23.000
    2 2.540 2.193  2.887 1.000 1.00000 2.540 1.000      1.392  23.000
    3 2.490 2.148  2.832 1.000 1.00000 2.490 1.000      0.230  23.000
    4 2.490 2.148  2.832 1.000 1.00000 2.490 1.000      0.261  23.000
    5 2.530 2.184  2.876 1.000 1.00000 2.530 1.000      1.043  23.000
    6 2.550 2.202  2.898 1.000 1.00000 2.550 1.000      1.228  23.000
    7 2.560 2.211  2.909 1.000 1.00000 2.550 1.000      6.632  23.000
    8 2.550 2.202  2.898 1.000 1.00000 2.550 1.000      4.461  23.000
    9 2.520 2.175  2.865 1.000 1.00000 2.520 1.000      2.641  23.000
   10 2.570 2.220  2.920 1.000 1.00000 2.570 1.000      2.606  23.000
   11 2.540 2.193  2.887 1.000 1.00000 2.540 1.000      1.751  23.000
   12 2.550 2.202  2.898 1.000 1.00000 2.550 1.000      2.174  23.000
   13 2.580 2.229  2.931 1.000 1.00000 2.580 1.000      1.872  23.000
   14 2.580 2.229  2.931 1.000 1.00000 2.580 1.000      1.712  23.000
   15 2.540 2.193  2.887 1.000 1.00000 2.540 1.000      1.802  23.000
   16 2.630 2.274  2.986 1.000 1.00000 2.630 1.000     10.323  23.000
   17 2.640 2.283  2.997 1.000 1.00000 2.640 1.000      5.160  23.000
   18 2.450 2.112  2.788 1.000 1.00000 2.450 1.000      3.724  23.000
   19 2.500 2.157  2.843 1.000 1.00000 2.500 1.000      0.585  23.000
   20 2.620 2.265  2.975 1.000 1.00000 2.620 1.000      3.317  23.000
   21 2.610 2.256  2.964 1.000 1.00000 2.610 1.000      4.294  23.000
   22 2.530 2.184  2.876 1.000 1.00000 2.540 1.000      0.795  23.000
   23 2.570 2.220  2.920 1.000 1.00000 2.570 1.000      3.764  23.000
   24 2.450 2.112  2.788 1.000 1.00000 2.450 1.000      4.329  23.000
   25 2.490 2.148  2.832 1.000 1.00000 2.490 1.000      0.353  23.000
   26 2.620 2.265  2.975 1.000 1.00000 2.620 1.000      3.649  23.000
   27 2.540 2.193  2.887 1.000 1.00000 2.540 1.000      2.517  23.000
   28 2.540 2.193  2.887 1.000 1.00000 2.540 1.000      2.110  23.000
   29 2.530 2.184  2.876 1.000 1.00000 2.530 1.000      1.114  23.000
   30 2.590 2.238  2.942 1.000 1.00000 2.590 1.000      7.415  23.000
   31 2.440 2.103  2.777 1.000 1.00000 2.440 1.000      2.299  23.000
   32 2.510 2.166  2.854 1.000 1.00000 2.510 1.000      0.378  23.000
   33 2.470 2.130  2.810 1.000 1.00000 2.470 1.000      1.463  23.000
   34 2.460 2.121  2.799 1.000 1.00000 2.460 1.000      5.235  23.000
   35 2.560 2.211  2.909 1.000 1.00000 2.560 1.000      1.670  23.000
   36 2.540 2.193  2.887 1.000 1.00000 2.540 1.000      1.316  23.000
   37 2.550 2.202  2.898 1.000 1.00000 2.550 1.000      4.480  23.000
   38 2.560 2.211  2.909 1.000 1.00000 2.560 1.000      1.699  23.000
   39 2.600 2.247  2.953 1.000 1.00000 2.600 1.000      3.069  23.000
   40 2.450 2.112  2.788 1.000 1.00000 2.450 1.000      3.170  23.000
   41 2.560 2.211  2.909 1.000 1.00000 2.560 1.000      2.390  23.000
   42 2.590 2.238  2.942 1.000 1.00000 2.590 1.000      2.224  23.000
   43 2.490 2.148  2.832 1.000 1.00000 2.490 1.000      0.554  23.000
   44 2.640 2.283  2.997 1.000 1.00000 2.640 1.000     15.032  23.000
   45 2.620 2.265  2.975 1.000 1.00000 2.620 1.000      4.216  23.000
   46 2.570 2.220  2.920 1.000 1.00000 2.570 1.000      4.432  23.000
   47 2.500 2.157  2.843 1.000 1.00000 2.500 1.000      1.702  23.000
   48 2.620 2.265  2.975 1.000 1.00000 2.620 1.000      5.474  23.000
   49 2.660 2.301  3.019 1.000 1.00000 2.660 1.000     30.298  23.000
   50 2.640 2.283  2.997 1.000 1.00000 2.640 1.000      9.433  23.000
   51 2.650 2.292  3.008 1.000 1.00000 2.650 1.000     14.008  23.000
   52 2.590 2.238  2.942 1.000 1.00000 2.590 1.000      4.020  23.000
   53 2.470 2.130  2.810 1.000 1.00000 2.470 1.000      0.863  23.000
   54 2.500 2.157  2.843 1.000 1.00000 2.500 1.000      1.509  23.000
   55 2.540 2.193  2.887 1.000 1.00000 2.540 1.000      0.976  23.000
   56 2.520 2.175  2.865 1.000 1.00000 2.520 1.000      0.231  23.000
   57 2.490 2.148  2.832 1.000 1.00000 2.490 1.000      0.313  23.000
   58 2.530 2.184  2.876 1.000 1.00000 2.530 1.000      3.647  23.000
   59 2.510 2.166  2.854 1.000 1.00000 2.510 1.000      0.267  23.000
   60 2.550 2.202  2.898 1.000 1.00000 2.550 1.000      3.097  23.000
   61 2.550 2.202  2.898 1.000 1.00000 2.550 1.000      2.084  23.000
   62 2.570 2.220  2.920 1.000 1.00000 2.570 1.000      7.248  23.000
   63 2.510 2.166  2.854 1.000 1.00000 2.510 1.000      0.315  23.000
   64 2.630 2.274  2.986 1.000 1.00000 2.630 1.000     12.168  23.000
   65 2.550 2.202  2.898 1.000 1.00000 2.550 1.000      3.910  23.000
   66 2.450 2.112  2.788 1.000 1.00000 2.450 1.000      7.249  23.000
   67 2.530 2.184  2.876 1.000 1.00000 2.530 1.000      1.111  23.000
   68 2.570 2.220  2.920 1.000 1.00000 2.570 1.000      6.137  23.000
   69 2.540 2.193  2.887 1.000 1.00000 2.540 1.000      1.214  23.000
   70 2.550 2.202  2.898 1.000 1.00000 2.550 1.000      3.925  23.000
   71 2.480 2.139  2.821 1.000 1.00000 2.480 1.000      0.535  23.000
   72 2.640 2.283  2.997 1.000 1.00000 2.640 1.000     13.121  23.000
   73 2.550 2.202  2.898 1.000 1.00000 2.550 1.000      1.078  23.000
   74 2.550 2.202  2.898 1.000 1.00000 2.550 1.000      6.685  23.000
   75 2.580 2.229  2.931 1.000 1.00000 2.580 1.000      3.372  23.000
   76 2.520 2.175  2.865 1.000 1.00000 2.520 1.000      0.179  23.000
   77 2.590 2.238  2.942 1.000 1.00000 2.590 1.000      3.165  23.000
   78 2.600 2.247  2.953 1.000 1.00000 2.600 1.000      2.974  23.000
   79 2.540 2.193  2.887 1.000 1.00000 2.540 1.000      2.187  23.000
   80 2.590 2.238  2.942 1.000 1.00000 2.590 1.000      7.393  23.000
   81 2.550 2.202  2.898 1.000 1.00000 2.550 1.000      1.548  23.000
   82 2.580 2.229  2.931 1.000 1.00000 2.580 1.000      4.153  23.000
   83 2.530 2.184  2.876 1.000 1.00000 2.530 1.000      0.925  23.000
   84 2.460 2.121  2.799 1.000 1.00000 2.460 1.000      1.463  23.000
   85 2.550 2.202  2.898 1.000 1.00000 2.550 1.000      2.229  23.000
   86 2.580 2.229  2.931 1.000 1.00000 2.580 1.000      4.703  23.000
   87 2.590 2.238  2.942 1.000 1.00000 2.590 1.000      4.886  23.000
   88 2.500 2.157  2.843 1.000 1.00000 2.500 1.000      0.073  23.000
   89 2.550 2.202  2.898 1.000 1.00000 2.550 1.000      1.689  23.000
   90 2.510 2.166  2.854 1.000 1.00000 2.510 1.000      0.319  23.000
   91 2.540 2.193  2.887 1.000 1.00000 2.540 1.000      2.391  23.000
   92 2.610 2.256  2.964 1.000 1.00000 2.610 1.000      9.517  23.000
   93 2.570 2.220  2.920 1.000 1.00000 2.570 1.000      2.017  23.000
   94 2.480 2.139  2.821 1.000 1.00000 2.480 1.000      1.463  23.000
   95 2.460 2.121  2.799 1.000 1.00000 2.460 1.000      2.209  23.000
   96 2.600 2.247  2.953 1.000 1.00000 2.600 1.000      6.305  23.000
   97 2.530 2.184  2.876 1.000 1.00000 2.530 1.000      3.589  23.000
   98 2.540 2.193  2.887 1.000 1.00000 2.540 1.000      2.950  23.000
   99 2.540 2.193  2.887 1.000 1.00000 2.540 1.000      0.723  23.000
  100 2.540 2.193  2.887 1.000 1.00000 2.540 1.000      1.819  23.000
